# WAVELENGTH_UNIT	AA
# COMPNAME       	HST_WFC3_F673N
# NAME           	HST_WFC3_F673N
# DETECTOR       	photon
#
## WAVELENGTH	None	AA
## THROUGHPUT	None	filter throughput definition
#
WAVELENGTH,THROUGHPUT
1938.638306,0.000000
1939.638306,0.000000
1940.638306,0.000000
1950.639893,0.000000
1960.641357,0.000000
1970.643066,0.000000
1980.644653,0.000000
1990.646362,0.000000
2000.648193,0.000000
2010.649902,0.000000
2020.651733,0.000000
2030.653442,0.000000
2040.655273,0.000000
2050.656982,0.000000
2060.658936,0.000000
2070.660889,0.000000
2080.662842,0.000000
2090.664795,0.000000
2100.666748,0.000000
2110.668701,0.000000
2120.670654,0.000000
2130.672607,0.000000
2140.674561,0.000000
2150.676514,0.000000
2160.678711,0.000000
2170.680664,0.000000
2180.682861,0.000000
2190.684814,0.000000
2200.687012,0.000000
2210.688965,0.000000
2220.691162,0.000000
2230.693115,0.000000
2240.695312,0.000000
2250.697510,0.000000
2260.699707,0.000000
2270.701904,0.000000
2280.704102,0.000000
2290.706299,0.000000
2300.708496,0.000000
2310.710449,0.000000
2320.712891,0.000000
2330.715088,0.000000
2340.717285,0.000000
2350.719482,0.000000
2360.721680,0.000000
2370.723877,0.000000
2380.726074,0.000000
2390.728516,0.000000
2400.730713,0.000000
2410.732910,0.000000
2420.735107,0.000000
2430.737549,0.000000
2440.739746,0.000000
2450.742188,0.000000
2460.744385,0.000000
2470.746582,0.000000
2480.749023,0.000000
2490.751221,0.000000
2500.753662,0.000000
2510.756104,0.000000
2520.758301,0.000000
2530.760498,0.000000
2540.762939,0.000000
2550.765381,0.000000
2560.767578,0.000000
2570.770020,0.000000
2580.772461,0.000000
2590.774902,0.000000
2600.777100,0.000000
2610.779541,0.000000
2620.781982,0.000000
2630.784180,0.000000
2640.786621,0.000000
2650.789062,0.000000
2660.791504,0.000000
2670.793701,0.000000
2680.796143,0.000000
2690.798584,0.000000
2700.801025,0.000000
2710.803467,0.000000
2720.805908,0.000000
2730.808350,0.000000
2740.810791,0.000000
2750.812988,0.000000
2760.815674,0.000000
2770.818115,0.000000
2780.820312,0.000000
2790.822998,0.000000
2800.825195,0.000000
2810.827881,0.000000
2820.830078,0.000000
2830.832520,0.000000
2840.835205,0.000000
2850.837646,0.000000
2860.840088,0.000000
2870.842529,0.000000
2880.844971,0.000000
2890.847412,0.000000
2900.849854,0.000000
2910.852295,0.000000
2920.854736,0.000000
2930.857422,0.000000
2940.859863,0.000000
2950.862305,0.000000
2960.864746,0.000000
2970.867188,0.000001
2980.869629,0.000001
2990.872314,0.000001
3000.874756,0.000001
3010.877197,0.000001
3020.879639,0.000001
3030.882080,0.000001
3040.884766,0.000002
3050.887207,0.000002
3060.889648,0.000002
3070.892090,0.000002
3080.894775,0.000002
3090.897217,0.000002
3100.899658,0.000002
3110.902100,0.000002
3120.904785,0.000002
3130.907227,0.000001
3140.909912,0.000001
3150.912354,0.000001
3160.914795,0.000001
3170.917236,0.000001
3180.919922,0.000001
3190.922363,0.000001
3200.924805,0.000001
3210.927490,0.000001
3220.929932,0.000001
3230.932617,0.000001
3240.935059,0.000001
3250.937500,0.000001
3260.940186,0.000001
3270.942627,0.000001
3280.945312,0.000001
3290.947754,0.000001
3300.950195,0.000001
3310.952881,0.000001
3320.955322,0.000000
3330.958008,0.000000
3340.960449,0.000000
3350.962891,0.000000
3360.965576,0.000000
3370.968018,0.000000
3380.970703,0.000000
3390.973145,0.000000
3400.975830,0.000000
3410.978271,0.000000
3420.980957,0.000000
3430.983398,0.000000
3440.986084,0.000000
3450.988525,0.000000
3460.991211,0.000000
3470.993652,0.000000
3480.996338,0.000000
3490.998779,0.000000
3501.001465,0.000000
3511.003906,0.000000
3521.006592,0.000000
3531.009033,0.000000
3541.011719,0.000000
3551.014404,0.000000
3561.016846,0.000000
3571.019287,0.000000
3581.021973,0.000000
3591.024658,0.000000
3601.027100,0.000000
3611.029785,0.000000
3621.032227,0.000000
3631.034912,0.000000
3641.037598,0.000001
3651.040039,0.000000
3661.042480,0.000000
3671.045166,0.000000
3681.047852,0.000001
3691.050293,0.000000
3701.052979,0.000000
3711.055664,0.000000
3721.058105,0.000000
3731.060791,0.000000
3741.063232,0.000000
3751.065918,0.000000
3761.068604,0.000000
3771.071045,0.000000
3781.073730,0.000000
3791.076416,0.000000
3801.078857,0.000000
3811.081543,0.000000
3821.083984,0.000000
3831.086670,0.000000
3841.089355,0.000000
3851.091797,0.000000
3861.094482,0.000000
3871.097168,0.000000
3881.099609,0.000000
3891.102295,0.000000
3901.104980,0.000000
3911.107422,0.000000
3921.110107,0.000000
3931.112793,0.000000
3941.115479,0.000000
3951.117920,0.000000
3961.120605,0.000000
3971.123291,0.000000
3981.125732,0.000000
3991.128418,0.000000
4001.131104,0.000000
4011.133545,0.000000
4021.136230,0.000000
4031.138916,0.000000
4041.141602,0.000000
4051.144043,0.000000
4061.146729,0.000000
4071.149414,0.000000
4081.151855,0.000000
4091.154541,0.000000
4101.157227,0.000000
4111.159668,0.000000
4121.162598,0.000000
4131.165039,0.000000
4141.167480,0.000000
4151.170410,0.000000
4161.172852,0.000000
4171.175293,0.000000
4181.178223,0.000000
4191.180664,0.000000
4201.183594,0.000000
4211.186035,0.000000
4221.188477,0.000000
4231.191406,0.000000
4241.193848,0.000000
4251.196289,0.000000
4261.199219,0.000000
4271.201660,0.000000
4281.204590,0.000000
4291.207031,0.000000
4301.209473,0.000000
4311.212402,0.000000
4321.214844,0.000000
4331.217773,0.000000
4341.220215,0.000000
4351.222656,0.000000
4361.225586,0.000000
4371.228027,0.000000
4381.230469,0.000000
4391.233398,0.000000
4401.235840,0.000000
4411.238770,0.000000
4421.241211,0.000000
4431.244141,0.000000
4441.246582,0.000001
4451.249023,0.000001
4461.251953,0.000001
4471.254395,0.000001
4481.257324,0.000001
4491.259766,0.000001
4501.262207,0.000001
4511.265137,0.000001
4521.267578,0.000001
4531.270508,0.000001
4541.272949,0.000001
4551.275391,0.000001
4561.278320,0.000001
4571.280762,0.000001
4581.283691,0.000001
4591.286133,0.000001
4601.288574,0.000001
4611.291504,0.000001
4621.293945,0.000001
4631.296875,0.000001
4641.299316,0.000001
4651.301758,0.000001
4661.304688,0.000001
4671.307129,0.000001
4681.310059,0.000001
4691.312500,0.000001
4701.315430,0.000001
4711.317871,0.000000
4721.320312,0.000000
4731.323242,0.000000
4741.325684,0.000000
4751.328613,0.000000
4761.331055,0.000000
4771.333984,0.000001
4781.336426,0.000001
4791.338867,0.000001
4801.341797,0.000001
4811.344238,0.000001
4821.347168,0.000001
4831.349609,0.000001
4841.352539,0.000001
4851.354980,0.000001
4861.357422,0.000001
4871.360352,0.000000
4881.362793,0.000000
4891.365723,0.000000
4901.368164,0.000000
4911.371094,0.000000
4921.373535,0.000000
4931.375977,0.000001
4941.378906,0.000001
4951.381348,0.000001
4961.384277,0.000001
4971.386719,0.000001
4981.389648,0.000001
4991.392090,0.000001
5001.395020,0.000001
5011.397461,0.000001
5021.399902,0.000001
5031.402832,0.000001
5041.405273,0.000001
5051.408203,0.000001
5061.410645,0.000001
5071.413574,0.000001
5081.416016,0.000001
5091.418945,0.000001
5101.421387,0.000001
5111.424316,0.000001
5121.426758,0.000001
5131.429199,0.000001
5141.432129,0.000001
5151.434570,0.000001
5161.437500,0.000001
5171.439941,0.000001
5181.442871,0.000001
5191.445312,0.000001
5201.448242,0.000001
5211.450684,0.000001
5221.453613,0.000001
5231.456055,0.000001
5241.458496,0.000001
5251.461426,0.000001
5261.463867,0.000001
5271.466797,0.000001
5281.469238,0.000001
5291.472168,0.000001
5301.474609,0.000001
5311.477539,0.000001
5321.479980,0.000001
5331.482910,0.000001
5341.485352,0.000001
5351.487793,0.000001
5361.490723,0.000001
5371.493164,0.000001
5381.496094,0.000001
5391.498535,0.000001
5401.501465,0.000001
5411.503906,0.000001
5421.506836,0.000001
5431.509277,0.000001
5441.512207,0.000001
5451.514648,0.000001
5461.517578,0.000001
5471.520020,0.000001
5481.522461,0.000001
5491.525391,0.000001
5501.527832,0.000001
5511.530762,0.000001
5521.533203,0.000001
5531.536133,0.000001
5541.538574,0.000000
5551.541504,0.000000
5561.543945,0.000000
5571.546875,0.000000
5581.549316,0.000001
5591.552246,0.000001
5601.554688,0.000001
5611.557617,0.000001
5621.560059,0.000001
5631.562988,0.000001
5641.565430,0.000001
5651.567871,0.000001
5661.570801,0.000001
5671.573730,0.000001
5681.576172,0.000001
5691.578613,0.000001
5701.581543,0.000001
5711.583984,0.000001
5721.586914,0.000001
5731.589355,0.000001
5741.592285,0.000001
5751.594727,0.000001
5761.597656,0.000001
5771.600098,0.000001
5781.603027,0.000001
5791.605469,0.000001
5801.608398,0.000001
5811.610840,0.000000
5821.613770,0.000000
5831.616211,0.000000
5841.619141,0.000000
5851.621582,0.000000
5861.624512,0.000000
5871.626953,0.000000
5881.629883,0.000000
5891.632324,0.000000
5901.634766,0.000000
5911.637695,0.000000
5921.640625,0.000000
5931.643066,0.000000
5941.645508,0.000000
5951.648438,0.000000
5961.650879,0.000000
5971.653809,0.000000
5981.656738,0.000000
5991.659180,0.000000
6001.661621,0.000000
6011.664551,0.000000
6021.666992,0.000000
6031.669922,0.000000
6041.672363,0.000000
6051.675293,0.000000
6061.677734,0.000000
6071.680664,0.000000
6081.683105,0.000000
6091.686035,0.000000
6101.688477,0.000000
6111.691406,0.000000
6121.693848,0.000000
6131.696777,0.000000
6141.699219,0.000000
6151.702148,0.000000
6161.704590,0.000000
6171.707520,0.000000
6181.709961,0.000000
6191.712891,0.000000
6201.715332,0.000000
6211.718262,0.000000
6221.720703,0.000000
6231.723633,0.000000
6241.726074,0.000000
6251.729004,0.000000
6261.731445,0.000000
6271.734375,0.000000
6281.736816,0.000000
6291.739746,0.000000
6301.742188,0.000000
6311.745117,0.000000
6321.747559,0.000000
6331.750488,0.000000
6341.752930,0.000000
6351.755859,0.000000
6361.758301,0.000000
6371.761230,0.000000
6381.763672,0.000000
6391.766602,0.000000
6401.769043,0.000000
6411.771973,0.000000
6421.774414,0.000000
6431.777344,0.000000
6441.779785,0.000000
6451.782715,0.000000
6651.836426,0.000356
6652.836426,0.000384
6653.836914,0.000424
6654.836914,0.000477
6655.837402,0.000518
6656.837891,0.000576
6657.837891,0.000636
6658.838379,0.000686
6659.838379,0.000791
6660.838867,0.000864
6661.838867,0.000955
6662.839355,0.001056
6663.839844,0.001175
6664.839844,0.001307
6665.840332,0.001429
6666.840332,0.001614
6667.840820,0.001763
6668.840820,0.001983
6669.841309,0.002219
6670.841309,0.002496
6671.841797,0.002796
6672.841797,0.003154
6673.842285,0.003571
6674.842285,0.004010
6675.842773,0.004553
6676.843262,0.005150
6677.843262,0.005836
6678.843750,0.006629
6679.843750,0.007576
6680.844238,0.008572
6681.844238,0.009831
6682.844727,0.011162
6683.844727,0.012841
6684.845215,0.014830
6685.845703,0.017301
6686.845703,0.019961
6687.846191,0.023306
6688.846191,0.027182
6689.846680,0.031911
6690.846680,0.037244
6691.847168,0.043675
6692.847168,0.051849
6693.847656,0.060865
6694.847656,0.072063
6695.848145,0.084738
6696.848633,0.101536
6697.848633,0.121691
6698.849121,0.147119
6699.849121,0.177044
6700.849609,0.212449
6701.849609,0.256427
6702.850098,0.306077
6703.850098,0.361571
6704.850586,0.424469
6705.851074,0.495956
6706.851074,0.565581
6707.851562,0.636887
6708.851562,0.698870
6709.852051,0.760526
6710.852051,0.814770
6711.852539,0.854862
6712.852539,0.880475
6713.853027,0.893610
6714.853516,0.897342
6715.853516,0.892711
6716.854004,0.883154
6717.854004,0.871126
6718.854492,0.856731
6719.854492,0.843134
6720.854980,0.828695
6721.854980,0.816456
6722.855469,0.806557
6723.855469,0.797027
6724.855957,0.788552
6725.855957,0.782656
6726.856445,0.779169
6727.856934,0.775168
6728.856934,0.774592
6729.857422,0.774263
6730.857422,0.776415
6731.857910,0.779169
6732.857910,0.783613
6733.858398,0.786115
6734.858887,0.792945
6735.858887,0.797473
6736.859375,0.803495
6737.859375,0.810473
6738.859863,0.818650
6739.859863,0.825772
6740.860352,0.833133
6741.860352,0.839568
6742.860840,0.847592
6743.861328,0.855245
6744.861328,0.861496
6745.861816,0.867697
6746.861816,0.874727
6747.862305,0.879865
6748.862305,0.886031
6749.862793,0.890446
6750.862793,0.892273
6751.863281,0.898575
6752.863281,0.901234
6753.863770,0.905375
6754.863770,0.905996
6755.864258,0.907751
6756.864746,0.910836
6757.864746,0.912681
6758.865234,0.912822
6759.865234,0.911379
6760.865723,0.912737
6761.865723,0.911760
6762.866211,0.911387
6763.866699,0.910981
6764.866699,0.909605
6765.867188,0.910026
6766.867188,0.908453
6767.867676,0.907107
6768.867676,0.907031
6769.868164,0.905402
6770.868164,0.904644
6771.868652,0.904110
6772.869141,0.901754
6773.869141,0.902333
6774.869629,0.900744
6775.869629,0.899833
6776.870117,0.899056
6777.870117,0.897700
6778.870605,0.896826
6779.870605,0.896981
6780.871094,0.896759
6781.871094,0.894094
6782.871582,0.895673
6783.871582,0.894338
6784.872070,0.894447
6785.872559,0.894682
6786.872559,0.894356
6787.873047,0.895372
6788.873047,0.894713
6789.873535,0.895400
6790.873535,0.893963
6791.874023,0.895477
6792.874512,0.894785
6793.874512,0.895329
6794.875000,0.895578
6795.875000,0.895863
6796.875488,0.892922
6797.875488,0.891969
6798.875977,0.891241
6799.875977,0.891160
6800.876465,0.888769
6801.876465,0.885883
6802.876953,0.882262
6803.877441,0.878605
6804.877441,0.875809
6805.877930,0.871605
6806.877930,0.864231
6807.878418,0.857117
6808.878418,0.848951
6809.878906,0.839421
6810.878906,0.829071
6811.879395,0.817957
6812.879395,0.801408
6813.879883,0.785817
6814.880371,0.770037
6815.880371,0.750215
6816.880859,0.727918
6817.880859,0.704121
6818.881348,0.677322
6819.881348,0.647656
6820.881836,0.617455
6821.882324,0.586839
6822.882324,0.551224
6823.882812,0.517172
6824.882812,0.481789
6825.883301,0.448556
6826.883301,0.412411
6827.883789,0.380732
6828.883789,0.346195
6829.884277,0.316529
6830.884277,0.287296
6831.884766,0.258014
6832.884766,0.230089
6833.885254,0.205554
6834.885742,0.184206
6835.885742,0.163692
6836.886230,0.145270
6837.886230,0.128853
6838.886719,0.114607
6839.886719,0.101556
6840.887207,0.090071
6841.887695,0.079635
6842.887695,0.070921
6843.888184,0.062875
6844.888184,0.055531
6845.888672,0.048872
6846.888672,0.043177
6847.889160,0.038337
6848.889160,0.033833
6849.889648,0.030029
6850.890137,0.026538
6851.890137,0.023732
6852.890625,0.021170
6853.890625,0.018875
6854.891113,0.016779
6855.891113,0.015084
6856.891602,0.013525
6857.891602,0.012171
6858.892090,0.010798
6859.892090,0.009650
6860.892578,0.008608
6861.892578,0.007749
6862.893066,0.006975
6863.893555,0.006249
6864.893555,0.005639
6865.894043,0.005088
6866.894043,0.004590
6867.894531,0.004177
6868.894531,0.003814
6869.895020,0.003448
6870.895508,0.003149
6871.895508,0.002818
6872.895996,0.002555
6873.895996,0.002318
6874.896484,0.002108
6875.896484,0.001930
6876.896973,0.001758
6877.896973,0.001595
6878.897461,0.001457
6879.897461,0.001350
6880.897949,0.001231
6881.898438,0.001126
6882.898438,0.001022
6883.898926,0.000950
6884.898926,0.000878
6885.899414,0.000816
6886.899414,0.000736
6887.899902,0.000668
6888.899902,0.000619
6889.900391,0.000577
6890.900391,0.000533
6891.900879,0.000478
6892.901367,0.000453
6893.901367,0.000417
6894.901855,0.000382
6895.901855,0.000348
6896.902344,0.000326
6897.902344,0.000299
6898.902832,0.000282
6899.903320,0.000256
6900.903320,0.000245
6901.903809,0.000216
7041.941406,0.000000
7051.943848,0.000000
7061.946777,0.000000
7071.949219,0.000000
7081.952148,0.000000
7091.954590,0.000000
7101.957520,0.000000
7111.959961,0.000000
7121.962891,0.000000
7131.965332,0.000000
7141.968262,0.000000
7151.970703,0.000000
7161.973633,0.000000
7171.976074,0.000000
7181.979004,0.000000
7191.981934,0.000000
7201.984375,0.000000
7211.987305,0.000000
7221.989746,0.000000
7231.992676,0.000000
7241.995117,0.000000
7251.998047,0.000000
7262.000488,0.000000
7272.003418,0.000000
7282.005859,0.000000
7292.008789,0.000000
7302.011230,0.000000
7312.014160,0.000000
7322.016602,0.000000
7332.019531,0.000000
7342.021973,0.000000
7352.024902,0.000000
7362.027344,0.000000
7372.030273,0.000000
7382.032715,0.000000
7392.035645,0.000000
7402.038086,0.000000
7412.041016,0.000000
7422.043457,0.000000
7432.046387,0.000000
7442.049316,0.000000
7452.051758,0.000000
7462.054688,0.000000
7472.057129,0.000000
7482.060059,0.000000
7492.062500,0.000000
7502.065430,0.000000
7512.067871,0.000000
7522.070801,0.000000
7532.073242,0.000000
7542.076172,0.000000
7552.078613,0.000000
7562.081543,0.000000
7572.083984,0.000000
7582.086914,0.000000
7592.089844,0.000000
7602.092285,0.000000
7612.095215,0.000000
7622.097656,0.000000
7632.100586,0.000000
7642.103027,0.000000
7652.105957,0.000000
7662.108398,0.000000
7672.111328,0.000000
7682.113770,0.000000
7692.116699,0.000000
7702.119141,0.000000
7712.122070,0.000000
7722.124512,0.000000
7732.127441,0.000000
7742.129883,0.000000
7752.132812,0.000000
7762.135254,0.000000
7772.138184,0.000000
7782.140625,0.000000
7792.143555,0.000000
7802.145996,0.000000
7812.148926,0.000000
7822.151367,0.000000
7832.154297,0.000000
7842.157227,0.000000
7852.159668,0.000000
7862.162598,0.000000
7872.165039,0.000000
7882.167969,0.000000
7892.170410,0.000000
7902.173340,0.000000
7912.175781,0.000000
7922.178711,0.000000
7932.181152,0.000000
7942.184082,0.000000
7952.186523,0.000000
7962.189453,0.000000
7972.191895,0.000000
7982.194824,0.000000
7992.197754,0.000000
8002.200195,0.000000
8012.203125,0.000000
8022.205566,0.000000
8032.208496,0.000000
8042.210938,0.000000
8052.213867,0.000000
8062.216309,0.000000
8072.219238,0.000000
8082.221680,0.000000
8092.224609,0.000000
8102.227539,0.000000
8112.229980,0.000000
8122.232910,0.000000
8132.235352,0.000000
8142.238281,0.000000
8152.240723,0.000000
8162.243652,0.000000
8172.246094,0.000000
8182.249023,0.000000
8192.251953,0.000000
8202.253906,0.000000
8212.256836,0.000000
8222.259766,0.000000
8232.262695,0.000000
8242.264648,0.000000
8252.267578,0.000000
8262.270508,0.000000
8272.273438,0.000000
8282.276367,0.000000
8292.278320,0.000000
8302.281250,0.000000
8312.284180,0.000000
8322.287109,0.000000
8332.289062,0.000000
8342.291992,0.000000
8352.294922,0.000000
8362.297852,0.000000
8372.299805,0.000000
8382.302734,0.000000
8392.305664,0.000000
8402.308594,0.000000
8412.310547,0.000000
8422.313477,0.000000
8432.316406,0.000000
8442.319336,0.000000
8452.322266,0.000000
8462.324219,0.000000
8472.327148,0.000000
8482.330078,0.000000
8492.333008,0.000000
8502.334961,0.000003
8512.337891,0.000000
8522.340820,0.000001
8532.343750,0.000000
8542.346680,0.000000
8552.348633,0.000001
8562.351562,0.000000
8572.354492,0.000000
8582.357422,0.000005
8592.359375,0.000000
8602.362305,0.000001
8612.365234,0.000000
8622.368164,0.000001
8632.370117,0.000000
8642.373047,0.000000
8652.375977,0.000000
8662.378906,0.000005
8672.381836,0.000000
8682.383789,0.000000
8692.386719,0.000002
8702.389648,0.000001
8712.392578,0.000000
8722.394531,0.000000
8732.397461,0.000001
8742.400391,0.000000
8752.403320,0.000000
8762.405273,0.000001
8772.408203,0.000000
8782.411133,0.000000
8792.414062,0.000004
8802.416016,0.000000
8812.418945,0.000000
8822.421875,0.000000
8832.424805,0.000000
8842.427734,0.000000
8852.429688,0.000000
8862.432617,0.000000
8872.435547,0.000000
8882.438477,0.000001
8892.440430,0.000000
8902.443359,0.000000
8912.446289,0.000001
8922.449219,0.000000
8932.452148,0.000000
8942.454102,0.000000
8952.457031,0.000000
8962.459961,0.000003
8972.462891,0.000000
8982.464844,0.000001
8992.467773,0.000001
9002.470703,0.000000
9012.473633,0.000000
9022.476562,0.000000
9032.478516,0.000000
9042.481445,0.000000
9052.484375,0.000001
9062.487305,0.000000
9072.489258,0.000000
9082.492188,0.000000
9092.495117,0.000001
9102.498047,0.000000
9112.500000,0.000000
9122.502930,0.000000
9132.505859,0.000000
9142.508789,0.000000
9152.510742,0.000000
9162.513672,0.000000
9172.516602,0.000002
9182.519531,0.000000
9192.522461,0.000000
9202.524414,0.000000
9212.527344,0.000000
9222.530273,0.000001
9232.533203,0.000000
9242.535156,0.000000
9252.538086,0.000000
9262.541016,0.000000
9272.543945,0.000000
9282.546875,0.000000
9292.548828,0.000000
9302.551758,0.000000
9312.554688,0.000000
9322.557617,0.000000
9332.559570,0.000000
9342.562500,0.000000
9352.565430,0.000001
9362.568359,0.000000
9372.570312,0.000000
9382.573242,0.000001
9392.576172,0.000000
9402.579102,0.000001
9412.582031,0.000000
9422.583984,0.000000
9432.586914,0.000000
9442.589844,0.000000
9452.592773,0.000000
9462.594727,0.000000
9472.597656,0.000000
9482.600586,0.000000
9492.603516,0.000000
9502.606445,0.000000
9512.608398,0.000000
9522.611328,0.000000
9532.614258,0.000000
9542.617188,0.000001
9552.619141,0.000000
9562.622070,0.000000
9572.625000,0.000000
9582.627930,0.000000
9592.630859,0.000000
9602.632812,0.000000
9612.635742,0.000000
9622.638672,0.000000
9632.641602,0.000000
9642.643555,0.000000
9652.646484,0.000000
9662.649414,0.000000
9672.652344,0.000000
9682.655273,0.000000
9692.657227,0.000000
9702.660156,0.000000
9712.663086,0.000000
9722.666016,0.000000
9732.667969,0.000000
9742.670898,0.000000
9752.673828,0.000000
9762.676758,0.000000
9772.679688,0.000000
9782.681641,0.000000
9792.684570,0.000000
9802.687500,0.000000
9812.690430,0.000000
9822.692383,0.000000
9832.695312,0.000000
9842.698242,0.000000
9852.701172,0.000000
9862.703125,0.000000
9872.706055,0.000000
9882.708984,0.000000
9892.711914,0.000000
9902.714844,0.000000
9912.716797,0.000000
9922.719727,0.000000
9932.722656,0.000000
9942.725586,0.000000
9952.727539,0.000000
9962.730469,0.000000
9972.733398,0.000000
9982.736328,0.000000
9992.739258,0.000000
10002.741211,0.000000
10012.744141,0.000000
10022.747070,0.000000
10032.750000,0.000000
10042.751953,0.000000
10052.754883,0.000000
10062.757812,0.000000
10072.759766,0.000000
10082.762695,0.000000
10092.765625,0.000000
10102.768555,0.000000
10112.771484,0.000000
10122.774414,0.000000
10132.777344,0.000000
10142.779297,0.000000
10152.782227,0.000000
10162.785156,0.000000
10172.788086,0.000000
10182.790039,0.000000
10192.792969,0.000000
10202.795898,0.000000
10212.797852,0.000000
10222.800781,0.000000
10232.803711,0.000000
10242.806641,0.000000
10252.808594,0.000000
10262.811523,0.000000
10272.815430,0.000000
10282.817383,0.000000
10292.820312,0.000000
10302.823242,0.000000
10312.826172,0.000000
10322.828125,0.000000
10332.831055,0.000000
10342.833984,0.000000
10352.835938,0.000000
10362.838867,0.000000
10372.841797,0.000000
10382.843750,0.000000
10392.846680,0.000000
10402.849609,0.000000
10412.852539,0.000000
10422.855469,0.000000
10432.858398,0.000000
10442.861328,0.000000
10452.863281,0.000000
10462.866211,0.000000
10472.869141,0.000000
10482.872070,0.000000
10492.874023,0.000000
10502.876953,0.000000
10512.879883,0.000000
10522.881836,0.000000
10532.884766,0.000000
10542.887695,0.000000
10552.890625,0.000000
10562.892578,0.000000
10572.896484,0.000000
10582.899414,0.000000
10592.901367,0.000000
10602.904297,0.000000
10612.907227,0.000000
10622.910156,0.000000
10632.912109,0.000000
10642.915039,0.000000
10652.917969,0.000000
10662.919922,0.000000
10672.922852,0.000000
10682.925781,0.000000
10692.928711,0.000000
10702.930664,0.000000
10712.933594,0.000000
10722.936523,0.000000
10732.939453,0.000000
10742.942383,0.000000
10752.945312,0.000000
10762.948242,0.000000
10772.950195,0.000000
10782.953125,0.000000
10792.956055,0.000000
10802.958008,0.000000
10812.960938,0.000000
10822.963867,0.000000
10832.966797,0.000000
10842.968750,0.000000
10852.971680,0.000000
10862.974609,0.000000
10872.976562,0.000000
10882.980469,0.000000
10892.983398,0.000000
10902.986328,0.000000
10912.988281,0.000000
10922.991211,0.000000
10932.994141,0.000000
10942.996094,0.000000
10952.999023,0.000000
10963.001953,0.000000
10973.004883,0.000000
10983.006836,0.000000
10993.009766,0.000000
11003.012695,0.000000
11004.012695,0.000000
11005.012695,0.000000
