# WAVELENGTH_UNIT	AA
# COMPNAME       	HST_WFC3_FQ727N
# NAME           	HST_WFC3_FQ727N
# DETECTOR       	photon
#
## WAVELENGTH	None	AA
## THROUGHPUT	None	filter throughput definition
#
WAVELENGTH,THROUGHPUT
1937.838257,0.000000
1938.838257,0.000000
1939.838257,0.000000
1949.839844,0.000000
1959.841431,0.000000
1969.843140,0.000000
1979.844727,0.000000
1989.846436,0.000000
1999.848145,0.000000
2009.849854,0.000000
2019.851685,0.000000
2029.853516,0.000000
2039.855347,0.000000
2049.857178,0.000000
2059.858887,0.000000
2069.860840,0.000000
2079.862793,0.000000
2089.864746,0.000000
2099.866699,0.000000
2109.868652,0.000000
2119.870605,0.000000
2129.872559,0.000000
2139.874512,0.000000
2149.876709,0.000000
2159.878662,0.000000
2169.880615,0.000000
2179.882812,0.000000
2189.884766,0.000000
2199.886963,0.000000
2209.888916,0.000000
2219.891113,0.000000
2229.893311,0.000000
2239.895508,0.000000
2249.897461,0.000000
2259.899658,0.000000
2269.901855,0.000000
2279.904053,0.000000
2289.906250,0.000000
2299.908447,0.000000
2309.910400,0.000000
2319.912842,0.000000
2329.915039,0.000000
2339.917236,0.000000
2349.919434,0.000000
2359.921631,0.000000
2369.923828,0.000000
2379.926025,0.000000
2389.928467,0.000000
2399.930664,0.000000
2409.932861,0.000000
2419.935303,0.000000
2429.937500,0.000000
2439.939697,0.000000
2449.942139,0.000000
2459.944336,0.000000
2469.946777,0.000000
2479.948975,0.000000
2489.951416,0.000000
2499.953613,0.000000
2509.956055,0.000000
2519.958252,0.000000
2529.960693,0.000000
2539.962891,0.000000
2549.965332,0.000000
2559.967773,0.000000
2569.969971,0.000000
2579.972412,0.000000
2589.974854,0.000000
2599.977051,0.000000
2609.979492,0.000000
2619.981934,0.000000
2629.984375,0.000000
2639.986572,0.000000
2649.989014,0.000000
2659.991455,0.000000
2669.993896,0.000000
2679.996094,0.000000
2689.998535,0.000000
2700.000977,0.000000
2710.003418,0.000000
2720.005859,0.000000
2730.008301,0.000000
2740.010742,0.000000
2750.013184,0.000000
2760.015625,0.000000
2770.018066,0.000000
2780.020508,0.000000
2790.022949,0.000000
2800.025391,0.000000
2810.027832,0.000000
2820.030273,0.000000
2830.032715,0.000000
2840.035156,0.000000
2850.037598,0.000000
2860.040039,0.000000
2870.042480,0.000000
2880.044922,0.000000
2890.047363,0.000000
2900.049805,0.000000
2910.052246,0.000000
2920.054688,0.000000
2930.057373,0.000000
2940.059814,0.000000
2950.062256,0.000000
2960.064697,0.000000
2970.067139,0.000000
2980.069580,0.000000
2990.072266,0.000000
3000.074707,0.000000
3010.077148,0.000000
3020.079590,0.000000
3030.082275,0.000000
3040.084717,0.000000
3050.087158,0.000001
3060.089600,0.000000
3070.092285,0.000001
3080.094727,0.000001
3090.097168,0.000001
3100.099609,0.000001
3110.102295,0.000001
3120.104736,0.000001
3130.107178,0.000001
3140.109863,0.000001
3150.112305,0.000001
3160.114746,0.000001
3170.117188,0.000001
3180.119873,0.000001
3190.122314,0.000001
3200.125000,0.000001
3210.127441,0.000001
3220.129883,0.000001
3230.132568,0.000001
3240.135010,0.000001
3250.137695,0.000001
3260.140137,0.000001
3270.142578,0.000001
3280.145264,0.000001
3290.147705,0.000001
3300.150391,0.000002
3310.152832,0.000002
3320.155273,0.000002
3330.157959,0.000002
3340.160400,0.000002
3350.163086,0.000002
3360.165527,0.000001
3370.168213,0.000001
3380.170654,0.000001
3390.173096,0.000001
3400.175781,0.000001
3410.178223,0.000001
3420.180908,0.000002
3430.183350,0.000002
3440.186035,0.000002
3450.188721,0.000002
3460.191162,0.000002
3470.193604,0.000002
3480.196289,0.000002
3490.198730,0.000002
3500.201416,0.000002
3510.204102,0.000002
3520.206543,0.000002
3530.208984,0.000002
3540.211670,0.000002
3550.214355,0.000002
3560.216797,0.000002
3570.219482,0.000002
3580.221924,0.000002
3590.224609,0.000002
3600.227051,0.000002
3610.229736,0.000002
3620.232422,0.000002
3630.234863,0.000002
3640.237549,0.000002
3650.239990,0.000002
3660.242676,0.000002
3670.245117,0.000002
3680.247803,0.000002
3690.250488,0.000002
3700.252930,0.000002
3710.255615,0.000002
3720.258301,0.000002
3730.260742,0.000002
3740.263184,0.000002
3750.265869,0.000003
3760.268555,0.000002
3770.270996,0.000002
3780.273682,0.000002
3790.276367,0.000003
3800.278809,0.000003
3810.281494,0.000003
3820.284180,0.000003
3830.286621,0.000003
3840.289307,0.000003
3850.291992,0.000003
3860.294434,0.000003
3870.297119,0.000003
3880.299805,0.000003
3890.302246,0.000003
3900.304932,0.000003
3910.307617,0.000003
3920.310059,0.000003
3930.312744,0.000003
3940.315430,0.000003
3950.318115,0.000003
3960.320557,0.000003
3970.323242,0.000003
3980.325684,0.000003
3990.328369,0.000003
4000.331055,0.000003
4010.333496,0.000003
4020.336182,0.000003
4030.338867,0.000003
4040.341553,0.000003
4050.343994,0.000003
4060.346680,0.000003
4070.349365,0.000003
4080.351807,0.000003
4090.354492,0.000003
4100.357422,0.000003
4110.359863,0.000003
4120.362305,0.000003
4130.365234,0.000003
4140.367676,0.000003
4150.370117,0.000003
4160.373047,0.000003
4170.375488,0.000003
4180.377930,0.000003
4190.380859,0.000003
4200.383301,0.000003
4210.386230,0.000003
4220.388672,0.000003
4230.391113,0.000003
4240.394043,0.000003
4250.396484,0.000003
4260.399414,0.000003
4270.401855,0.000003
4280.404297,0.000003
4290.407227,0.000003
4300.409668,0.000003
4310.412109,0.000003
4320.415039,0.000003
4330.417480,0.000003
4340.420410,0.000003
4350.422852,0.000003
4360.425293,0.000003
4370.428223,0.000003
4380.430664,0.000003
4390.433594,0.000003
4400.436035,0.000003
4410.438477,0.000003
4420.441406,0.000003
4430.443848,0.000003
4440.446289,0.000003
4450.449219,0.000003
4460.451660,0.000002
4470.454590,0.000002
4480.457031,0.000002
4490.459473,0.000002
4500.462402,0.000002
4510.464844,0.000003
4520.467773,0.000003
4530.470215,0.000003
4540.472656,0.000003
4550.475586,0.000003
4560.478027,0.000003
4570.480957,0.000003
4580.483398,0.000003
4590.486328,0.000003
4600.488770,0.000003
4610.491211,0.000003
4620.494141,0.000002
4630.496582,0.000002
4640.499512,0.000002
4650.501953,0.000002
4660.504395,0.000002
4670.507324,0.000002
4680.509766,0.000003
4690.512695,0.000003
4700.515137,0.000003
4710.518066,0.000003
4720.520508,0.000003
4730.523438,0.000003
4740.525879,0.000003
4750.528320,0.000003
4760.531250,0.000003
4770.533691,0.000003
4780.536621,0.000003
4790.539062,0.000003
4800.541504,0.000004
4810.544434,0.000004
4820.546875,0.000004
4830.549805,0.000003
4840.552246,0.000003
4850.555176,0.000003
4860.557617,0.000003
4870.560059,0.000003
4880.562988,0.000003
4890.565430,0.000003
4900.568359,0.000003
4910.570801,0.000004
4920.573730,0.000004
4930.576172,0.000004
4940.579102,0.000004
4950.581543,0.000003
4960.583984,0.000003
4970.586914,0.000003
4980.589355,0.000003
4990.592285,0.000003
5000.594727,0.000003
5010.597656,0.000003
5020.600098,0.000003
5030.603027,0.000003
5040.605469,0.000003
5050.607910,0.000003
5060.610840,0.000003
5070.613281,0.000003
5080.616211,0.000003
5090.618652,0.000003
5100.621582,0.000003
5110.624023,0.000003
5120.626465,0.000003
5130.629395,0.000003
5140.632324,0.000003
5150.634766,0.000004
5160.637207,0.000004
5170.640137,0.000004
5180.642578,0.000004
5190.645508,0.000004
5200.647949,0.000004
5210.650879,0.000004
5220.653320,0.000003
5230.655762,0.000003
5240.658691,0.000003
5250.661621,0.000002
5260.664062,0.000002
5270.666504,0.000002
5280.669434,0.000002
5290.671875,0.000002
5300.674805,0.000002
5310.677246,0.000002
5320.680176,0.000002
5330.682617,0.000002
5340.685059,0.000002
5350.687988,0.000003
5360.690918,0.000004
5370.693359,0.000004
5380.695801,0.000004
5390.698730,0.000004
5400.701172,0.000004
5410.704102,0.000005
5420.706543,0.000004
5430.709473,0.000004
5440.711914,0.000004
5450.714844,0.000004
5460.717285,0.000004
5470.720215,0.000004
5480.722656,0.000004
5490.725586,0.000004
5500.728027,0.000004
5510.730469,0.000004
5520.733398,0.000003
5530.736328,0.000003
5540.738770,0.000003
5550.741211,0.000003
5560.744141,0.000003
5570.746582,0.000003
5580.749512,0.000003
5590.751953,0.000003
5600.754883,0.000003
5610.757324,0.000002
5620.760254,0.000002
5630.762695,0.000002
5640.765625,0.000002
5650.768066,0.000001
5660.770996,0.000001
5670.773438,0.000001
5680.775879,0.000001
5690.778809,0.000001
5700.781738,0.000001
5710.784180,0.000001
5720.786621,0.000001
5730.789551,0.000002
5740.791992,0.000002
5750.794922,0.000002
5760.797363,0.000002
5770.800293,0.000002
5780.802734,0.000003
5790.805664,0.000003
5800.808105,0.000003
5810.811035,0.000003
5820.813477,0.000003
5830.816406,0.000003
5840.818848,0.000003
5850.821777,0.000003
5860.824219,0.000003
5870.827148,0.000003
5880.829590,0.000003
5890.832520,0.000003
5900.834961,0.000003
5910.837891,0.000003
5920.840332,0.000003
5930.843262,0.000003
5940.845703,0.000003
5950.848633,0.000003
5960.851074,0.000002
5970.854004,0.000002
5980.856445,0.000002
5990.858887,0.000001
6000.861816,0.000001
6010.864258,0.000001
6020.867188,0.000001
6030.870117,0.000000
6040.872559,0.000000
6050.875000,0.000000
6060.877930,0.000000
6070.880371,0.000000
6080.883301,0.000000
6090.885742,0.000000
6100.888672,0.000000
6110.891113,0.000000
6120.894043,0.000000
6130.896484,0.000000
6140.899414,0.000000
6150.901855,0.000000
6160.904785,0.000000
6170.907227,0.000000
6180.910156,0.000001
6190.912598,0.000001
6200.915527,0.000001
6210.917969,0.000001
6220.920898,0.000001
6230.923340,0.000001
6240.926270,0.000001
6250.928711,0.000000
6260.931641,0.000000
6270.934082,0.000000
6280.937012,0.000000
6290.939453,0.000001
6300.942383,0.000001
6310.944824,0.000000
6320.947754,0.000000
6330.950195,0.000000
6340.953125,0.000000
6350.955566,0.000000
6360.958496,0.000000
6370.960938,0.000000
6380.963867,0.000000
6390.966309,0.000000
6400.969238,0.000000
6410.971680,0.000000
6420.974609,0.000000
6430.977051,0.000000
6440.979980,0.000000
6450.982422,0.000000
6460.985352,0.000000
6470.987793,0.000000
6480.990723,0.000000
6490.993164,0.000000
6500.996094,0.000000
6510.998535,0.000000
6521.001465,0.000000
6531.003906,0.000000
6541.006836,0.000000
6551.009277,0.000000
6561.012207,0.000000
6571.014648,0.000000
6581.017578,0.000000
6591.020020,0.000000
6601.022949,0.000000
6611.025391,0.000000
6621.028320,0.000000
6631.030762,0.000000
6641.033691,0.000000
6651.036133,0.000000
6661.039062,0.000000
6671.041504,0.000000
6681.044434,0.000000
6691.046875,0.000000
6701.049805,0.000000
6711.052734,0.000000
6721.055176,0.000000
6731.058105,0.000000
6741.060547,0.000000
6751.062988,0.000000
6761.065918,0.000000
6771.068359,0.000000
6781.071289,0.000000
6791.074219,0.000000
6801.076660,0.000000
6811.079590,0.000000
6821.082031,0.000000
6831.084961,0.000000
6841.087402,0.000000
6851.090332,0.000000
6861.092773,0.000000
6871.095703,0.000000
6881.098145,0.000000
6891.101074,0.000000
6901.103516,0.000000
6911.106445,0.000000
6921.108887,0.000001
6931.111816,0.000001
6941.114258,0.000001
6951.117188,0.000001
6961.119629,0.000001
6971.122559,0.000001
6981.125000,0.000001
6991.127930,0.000001
7001.130371,0.000001
7011.133301,0.000002
7021.135742,0.000002
7031.138672,0.000002
7041.141113,0.000003
7051.144043,0.000004
7061.146484,0.000005
7071.149414,0.000006
7081.152344,0.000008
7091.154785,0.000011
7101.157715,0.000015
7111.160156,0.000023
7121.162598,0.000034
7131.165527,0.000053
7151.971191,0.000091
7152.171387,0.000081
7152.371094,0.000112
7152.571289,0.000101
7152.771484,0.000092
7152.971191,0.000115
7153.171387,0.000119
7153.371582,0.000096
7153.571777,0.000096
7153.771484,0.000107
7153.971680,0.000103
7154.171875,0.000097
7154.371582,0.000100
7154.571777,0.000083
7154.771973,0.000093
7154.972168,0.000085
7155.171875,0.000103
7155.372070,0.000099
7155.572266,0.000107
7155.771973,0.000100
7155.972168,0.000107
7156.172363,0.000137
7156.372070,0.000117
7156.572266,0.000129
7156.772461,0.000135
7156.972656,0.000095
7157.172363,0.000109
7157.372559,0.000134
7157.572754,0.000116
7157.772461,0.000128
7157.972656,0.000100
7158.172852,0.000117
7158.373047,0.000116
7158.572754,0.000117
7158.772949,0.000133
7158.973145,0.000124
7159.173340,0.000123
7159.373047,0.000139
7159.573242,0.000146
7159.773438,0.000125
7159.973145,0.000122
7160.173340,0.000127
7160.373535,0.000123
7160.573730,0.000128
7160.773438,0.000132
7160.973633,0.000149
7161.173828,0.000129
7161.373535,0.000144
7161.573730,0.000151
7161.773926,0.000138
7161.973633,0.000151
7162.173828,0.000145
7162.374023,0.000128
7162.574219,0.000131
7162.773926,0.000145
7162.974121,0.000141
7163.174316,0.000149
7163.374023,0.000176
7163.574219,0.000142
7163.774414,0.000159
7163.974609,0.000138
7164.174316,0.000148
7164.374512,0.000149
7164.574707,0.000147
7164.774414,0.000154
7164.974609,0.000145
7165.174805,0.000155
7165.375000,0.000170
7165.574707,0.000157
7165.774902,0.000182
7165.975098,0.000162
7166.174805,0.000173
7166.375000,0.000164
7166.575195,0.000181
7166.774902,0.000173
7166.975098,0.000182
7167.175293,0.000170
7167.375488,0.000169
7167.575195,0.000178
7167.775391,0.000156
7167.975586,0.000197
7168.175293,0.000172
7168.375488,0.000195
7168.575684,0.000185
7168.775879,0.000206
7168.975586,0.000193
7169.175781,0.000209
7169.375977,0.000196
7169.575684,0.000209
7169.775879,0.000204
7169.976074,0.000213
7170.176270,0.000191
7170.375977,0.000204
7170.576172,0.000210
7170.776367,0.000198
7170.976074,0.000213
7171.176270,0.000230
7171.376465,0.000212
7171.576172,0.000217
7171.776367,0.000222
7171.976562,0.000230
7172.176758,0.000225
7172.376465,0.000207
7172.576660,0.000239
7172.776855,0.000244
7172.976562,0.000228
7173.176758,0.000244
7173.376953,0.000240
7173.577148,0.000278
7173.776855,0.000252
7173.977051,0.000268
7174.177246,0.000256
7174.377441,0.000249
7174.577148,0.000279
7174.777344,0.000277
7174.977539,0.000291
7175.177246,0.000295
7175.377441,0.000286
7175.577637,0.000312
7175.777832,0.000293
7175.977539,0.000319
7176.177734,0.000320
7176.377930,0.000302
7176.577637,0.000326
7176.777832,0.000328
7176.978027,0.000341
7177.177734,0.000293
7177.377930,0.000315
7177.578125,0.000329
7177.778320,0.000328
7177.978027,0.000343
7178.178223,0.000356
7178.378418,0.000363
7178.578125,0.000346
7178.778320,0.000354
7178.978516,0.000357
7179.178711,0.000362
7179.378418,0.000374
7179.578613,0.000355
7179.778809,0.000396
7179.978516,0.000378
7180.178711,0.000391
7180.378906,0.000390
7180.579102,0.000390
7180.778809,0.000394
7180.979004,0.000405
7181.179199,0.000420
7181.378906,0.000448
7181.579102,0.000395
7181.779297,0.000449
7181.979004,0.000442
7182.179199,0.000459
7182.379395,0.000474
7182.579590,0.000475
7182.779297,0.000467
7182.979492,0.000468
7183.179688,0.000472
7183.379395,0.000480
7183.579590,0.000513
7183.779785,0.000497
7183.979980,0.000505
7184.179688,0.000494
7184.379883,0.000526
7184.580078,0.000538
7184.779785,0.000535
7184.979980,0.000550
7185.180176,0.000557
7185.379883,0.000545
7185.580078,0.000569
7185.780273,0.000595
7185.980469,0.000563
7186.180176,0.000580
7186.380371,0.000597
7186.580566,0.000615
7186.780273,0.000606
7186.980469,0.000609
7187.180664,0.000641
7187.380859,0.000640
7187.580566,0.000654
7187.780762,0.000665
7187.980957,0.000669
7188.180664,0.000669
7188.380859,0.000671
7188.581055,0.000683
7188.781250,0.000691
7188.980957,0.000717
7189.181152,0.000684
7189.381348,0.000735
7189.581543,0.000770
7189.781250,0.000776
7189.981445,0.000778
7190.181641,0.000780
7190.381348,0.000792
7190.581543,0.000782
7190.781738,0.000802
7190.981934,0.000818
7191.181641,0.000862
7191.381836,0.000852
7191.582031,0.000857
7191.781738,0.000863
7191.981934,0.000905
7192.182129,0.000904
7192.381836,0.000924
7192.582031,0.000937
7192.782227,0.000963
7192.982422,0.000957
7193.182129,0.000983
7193.382324,0.001032
7193.582520,0.001025
7193.782227,0.001022
7193.982422,0.001065
7194.182617,0.001048
7194.382812,0.001101
7194.582520,0.001071
7194.782715,0.001136
7194.982910,0.001149
7195.182617,0.001136
7195.382812,0.001166
7195.583008,0.001206
7195.782715,0.001216
7195.982910,0.001224
7196.183105,0.001251
7196.383301,0.001284
7196.583008,0.001285
7196.783203,0.001342
7196.983398,0.001339
7197.183105,0.001343
7197.383301,0.001379
7197.583496,0.001413
7197.783691,0.001421
7197.983398,0.001457
7198.183594,0.001438
7198.383789,0.001504
7198.583496,0.001490
7198.783691,0.001564
7198.983887,0.001563
7199.184082,0.001575
7199.383789,0.001610
7199.583984,0.001637
7199.784180,0.001661
7199.983887,0.001735
7200.184082,0.001738
7200.384277,0.001795
7200.583984,0.001798
7200.784180,0.001824
7200.984375,0.001846
7201.184570,0.001894
7201.384277,0.001926
7201.584473,0.001979
7201.784668,0.001979
7201.984375,0.002002
7202.184570,0.002032
7202.384766,0.002090
7202.584961,0.002136
7202.784668,0.002180
7202.984863,0.002177
7203.185059,0.002221
7203.384766,0.002300
7203.584961,0.002336
7203.785156,0.002371
7203.985352,0.002386
7204.185059,0.002431
7204.385254,0.002474
7204.585449,0.002564
7204.785156,0.002598
7204.985352,0.002609
7205.185547,0.002665
7205.385742,0.002751
7205.585449,0.002760
7205.785645,0.002819
7205.985840,0.002863
7206.186035,0.002925
7206.385742,0.002977
7206.585938,0.003073
7206.786133,0.003087
7206.985840,0.003147
7207.186035,0.003255
7207.386230,0.003232
7207.585938,0.003336
7207.786133,0.003416
7207.986328,0.003459
7208.186523,0.003562
7208.386230,0.003622
7208.586426,0.003649
7208.786621,0.003725
7208.986328,0.003808
7209.186523,0.003917
7209.386719,0.003991
7209.586914,0.004044
7209.786621,0.004134
7209.986816,0.004199
7210.187012,0.004291
7210.386719,0.004399
7210.586914,0.004437
7210.787109,0.004541
7210.986816,0.004686
7211.187012,0.004770
7211.387207,0.004849
7211.587402,0.004915
7211.787109,0.005068
7211.987305,0.005130
7212.187500,0.005285
7212.387207,0.005327
7212.587402,0.005459
7212.787598,0.005577
7212.987793,0.005718
7213.187500,0.005805
7213.387695,0.006001
7213.587891,0.006094
7213.787598,0.006235
7213.987793,0.006355
7214.187988,0.006439
7214.388184,0.006659
7214.587891,0.006747
7214.788086,0.006874
7214.988281,0.007130
7215.187988,0.007253
7215.388184,0.007363
7215.588379,0.007568
7215.788086,0.007731
7215.988281,0.007830
7216.188477,0.008008
7216.388672,0.008159
7216.588379,0.008416
7216.788574,0.008633
7216.988770,0.008821
7217.188477,0.008944
7217.388672,0.009132
7217.588867,0.009405
7217.789062,0.009633
7217.988770,0.009876
7218.188965,0.010119
7218.389160,0.010212
7218.588867,0.010482
7218.789062,0.010824
7218.989258,0.011134
7219.189453,0.011334
7219.389160,0.011528
7219.589355,0.011860
7219.789551,0.012203
7219.989258,0.012589
7220.189453,0.012885
7220.389648,0.013121
7220.589844,0.013417
7220.789551,0.013719
7220.989746,0.014097
7221.189941,0.014357
7221.389648,0.014782
7221.589844,0.015183
7221.790039,0.015622
7221.990234,0.016024
7222.189941,0.016462
7222.390137,0.016791
7222.590332,0.017260
7222.790039,0.017612
7222.990234,0.018126
7223.190430,0.018653
7223.390625,0.019011
7223.590332,0.019645
7223.790527,0.020069
7223.990723,0.020682
7224.190430,0.021303
7224.390625,0.021896
7224.590820,0.022438
7224.791016,0.023034
7224.990723,0.023595
7225.190918,0.024408
7225.391113,0.025000
7225.590820,0.025800
7225.791016,0.026341
7225.991211,0.027082
7226.190918,0.027894
7226.391113,0.028843
7226.591309,0.029696
7226.791504,0.030244
7226.991211,0.031123
7227.191406,0.031815
7227.391602,0.032995
7227.591309,0.034130
7227.791504,0.035145
7227.991699,0.035979
7228.191895,0.037085
7228.391602,0.038463
7228.591797,0.039624
7228.791992,0.040696
7228.991699,0.041849
7229.191895,0.042910
7229.392090,0.044312
7229.592285,0.045758
7229.791992,0.047213
7229.992188,0.048649
7230.192383,0.050145
7230.392090,0.051538
7230.592285,0.053488
7230.792480,0.055459
7230.992188,0.056787
7231.192383,0.058788
7231.392578,0.060053
7231.592773,0.062166
7231.792480,0.064483
7231.992676,0.066783
7232.192871,0.068671
7232.392578,0.070908
7232.592773,0.073398
7232.792969,0.075961
7232.993164,0.079156
7233.192871,0.081205
7233.393066,0.083583
7233.593262,0.086218
7233.792969,0.089576
7233.993164,0.092972
7234.193359,0.095988
7234.393555,0.098780
7234.593262,0.102120
7234.793457,0.105518
7234.993652,0.109885
7235.193359,0.113827
7235.393555,0.117103
7235.593750,0.120954
7235.793457,0.124967
7235.993652,0.129384
7236.193848,0.135015
7236.394043,0.139640
7236.593750,0.144107
7236.793945,0.148615
7236.994141,0.155153
7237.194336,0.161636
7237.394043,0.167753
7237.594238,0.172739
7237.794434,0.177495
7237.994141,0.183736
7238.194336,0.191722
7238.394531,0.199355
7238.594727,0.205607
7238.794434,0.212425
7238.994629,0.219481
7239.194824,0.227772
7239.394531,0.237108
7239.594727,0.244745
7239.794922,0.251977
7239.995117,0.260018
7240.194824,0.268377
7240.395020,0.278451
7240.595215,0.289216
7240.794922,0.297700
7240.995117,0.307330
7241.195312,0.317639
7241.395020,0.330928
7241.595215,0.343009
7241.795410,0.353363
7241.995605,0.363861
7242.195312,0.373716
7242.395508,0.385723
7242.595703,0.399670
7242.795410,0.413797
7242.995605,0.424128
7243.195801,0.436589
7243.395996,0.449564
7243.595703,0.463139
7243.795898,0.478060
7243.996094,0.488356
7244.195801,0.499542
7244.395996,0.512023
7244.596191,0.524890
7244.796387,0.539803
7244.996094,0.553958
7245.196289,0.566440
7245.396484,0.577930
7245.596191,0.591357
7245.796387,0.608078
7245.996582,0.620846
7246.196289,0.631871
7246.396484,0.642896
7246.596680,0.654058
7246.796875,0.665162
7246.996582,0.680730
7247.196777,0.691386
7247.396973,0.700817
7247.596680,0.710397
7247.796875,0.722244
7247.997070,0.731076
7248.197266,0.740735
7248.396973,0.748380
7248.597168,0.754261
7248.797363,0.761984
7248.997070,0.770804
7249.197266,0.777585
7249.397461,0.783945
7249.597168,0.789552
7249.797363,0.795791
7249.997559,0.801652
7250.197754,0.806088
7250.397461,0.811349
7250.597656,0.814236
7250.797852,0.816913
7250.997559,0.820569
7251.197754,0.822937
7251.397949,0.824965
7251.598145,0.827663
7251.797852,0.828636
7251.998047,0.829116
7252.198242,0.830715
7252.398438,0.830596
7252.598145,0.831147
7252.798340,0.830834
7252.998535,0.830920
7253.198242,0.830050
7253.398438,0.829812
7253.598633,0.829676
7253.798828,0.827299
7253.998535,0.826747
7254.198730,0.825672
7254.398926,0.824054
7254.598633,0.823254
7254.798828,0.821005
7254.999023,0.819668
7255.199219,0.818169
7255.398926,0.816649
7255.599121,0.813672
7255.799316,0.811350
7255.999023,0.809709
7256.199219,0.808087
7256.399414,0.806512
7256.599121,0.805618
7256.799316,0.802721
7256.999512,0.801793
7257.199707,0.799651
7257.399414,0.798691
7257.599609,0.796928
7257.799805,0.794778
7257.999512,0.794262
7258.199707,0.793011
7258.399902,0.790978
7258.600098,0.789795
7258.799805,0.787817
7259.000000,0.787227
7259.200195,0.785238
7259.399902,0.784271
7259.600098,0.783260
7259.800293,0.782533
7260.000488,0.782768
7260.200195,0.781232
7260.400391,0.781071
7260.600586,0.779670
7260.800293,0.779050
7261.000488,0.778000
7261.200684,0.778100
7261.400391,0.778550
7261.600586,0.778698
7261.800781,0.779187
7262.000977,0.779583
7262.200684,0.778733
7262.400879,0.779563
7262.601074,0.779775
7262.800781,0.780572
7263.000977,0.781112
7263.201172,0.781825
7263.401367,0.782417
7263.601074,0.783086
7263.801270,0.783080
7264.001465,0.784312
7264.201172,0.785960
7264.401367,0.787472
7264.601562,0.786926
7264.801270,0.788104
7265.001465,0.790495
7265.201660,0.791653
7265.401855,0.793232
7265.601562,0.794569
7265.801758,0.795517
7266.001953,0.797326
7266.201660,0.799025
7266.401855,0.800253
7266.602051,0.802307
7266.802246,0.804569
7267.001953,0.806166
7267.202148,0.809134
7267.402344,0.810182
7267.602539,0.812187
7267.802246,0.813228
7268.002441,0.814624
7268.202637,0.817180
7268.402344,0.819982
7268.602539,0.822603
7268.802734,0.825052
7269.002930,0.826511
7269.202637,0.828637
7269.402832,0.830383
7269.603027,0.833075
7269.802734,0.835622
7270.002930,0.837531
7270.203125,0.839848
7270.403320,0.840725
7270.603027,0.844248
7270.803223,0.845479
7271.003418,0.847728
7271.203125,0.849503
7271.403320,0.851466
7271.603516,0.854467
7271.803223,0.857300
7272.003418,0.858149
7272.203613,0.859175
7272.403809,0.861238
7272.603516,0.864293
7272.803711,0.866379
7273.003906,0.868164
7273.203613,0.869618
7273.403809,0.871879
7273.604004,0.874711
7273.804199,0.875684
7274.003906,0.876382
7274.204102,0.877492
7274.404297,0.878411
7274.604004,0.878876
7274.804199,0.882904
7275.004395,0.883534
7275.204102,0.884607
7275.404297,0.886433
7275.604492,0.886912
7275.804688,0.887812
7276.004395,0.886311
7276.204590,0.889112
7276.404785,0.889596
7276.604492,0.889960
7276.804688,0.891736
7277.004883,0.890927
7277.205078,0.892217
7277.404785,0.892350
7277.604980,0.893161
7277.805176,0.891907
7278.004883,0.893519
7278.205078,0.892167
7278.405273,0.891483
7278.605469,0.891734
7278.805176,0.892575
7279.005371,0.891868
7279.205566,0.891477
7279.405273,0.889611
7279.605469,0.891313
7279.805664,0.891033
7280.005371,0.889186
7280.205566,0.888426
7280.405762,0.886651
7280.605957,0.885736
7280.805664,0.885810
7281.005859,0.885260
7281.206055,0.884832
7281.405762,0.883460
7281.605957,0.881850
7281.806152,0.880874
7282.006348,0.880234
7282.206055,0.878432
7282.406250,0.877889
7282.606445,0.876193
7282.806641,0.875100
7283.006348,0.874080
7283.206543,0.872503
7283.406738,0.870519
7283.606445,0.869171
7283.806641,0.867933
7284.006836,0.866353
7284.207031,0.865512
7284.406738,0.863449
7284.606934,0.861781
7284.807129,0.860278
7285.006836,0.858117
7285.207031,0.857645
7285.407227,0.855924
7285.607422,0.853626
7285.807129,0.853748
7286.007324,0.851304
7286.207520,0.850422
7286.407227,0.848248
7286.607422,0.845593
7286.807617,0.845838
7287.007324,0.843617
7287.207520,0.842833
7287.407715,0.841170
7287.607910,0.840248
7287.807617,0.838315
7288.007812,0.838150
7288.208008,0.836752
7288.407715,0.836159
7288.607910,0.834026
7288.808105,0.833245
7289.008301,0.832358
7289.208008,0.831250
7289.408203,0.829212
7289.608398,0.829865
7289.808105,0.828892
7290.008301,0.827574
7290.208496,0.826507
7290.408203,0.826632
7290.608398,0.826492
7290.808594,0.824916
7291.008789,0.825066
7291.208496,0.823029
7291.408691,0.823569
7291.608887,0.823694
7291.808594,0.823166
7292.008789,0.823138
7292.208984,0.821130
7292.409180,0.821744
7292.608887,0.821447
7292.809082,0.821170
7293.009277,0.821573
7293.208984,0.821420
7293.409180,0.821645
7293.609375,0.821030
7293.809570,0.821866
7294.009277,0.820725
7294.209473,0.822124
7294.409668,0.819955
7294.609375,0.821425
7294.809570,0.820365
7295.009766,0.819891
7295.209473,0.821229
7295.409668,0.819933
7295.609863,0.819820
7295.810059,0.820470
7296.009766,0.818949
7296.209961,0.818701
7296.410156,0.818877
7296.609863,0.818745
7296.810059,0.818020
7297.010254,0.817969
7297.210449,0.816803
7297.410156,0.816085
7297.610352,0.815461
7297.810547,0.813796
7298.010742,0.813447
7298.210449,0.811062
7298.410645,0.810952
7298.610840,0.808601
7298.810547,0.806860
7299.010742,0.804651
7299.210938,0.803052
7299.411133,0.800379
7299.610840,0.797452
7299.811035,0.794289
7300.011230,0.791435
7300.210938,0.788144
7300.411133,0.784104
7300.611328,0.779925
7300.811035,0.777000
7301.011230,0.771683
7301.211426,0.765867
7301.411621,0.761674
7301.611328,0.757649
7301.811523,0.750845
7302.011719,0.742994
7302.211426,0.737580
7302.411621,0.731565
7302.611816,0.726114
7302.812012,0.719377
7303.011719,0.712169
7303.211914,0.703134
7303.412109,0.693416
7303.611816,0.685631
7303.812012,0.678225
7304.012207,0.667987
7304.212402,0.658137
7304.412109,0.647370
7304.612305,0.637948
7304.812500,0.630381
7305.012207,0.621136
7305.212402,0.608968
7305.412598,0.597241
7305.612305,0.586981
7305.812500,0.577664
7306.012695,0.567518
7306.212891,0.554802
7306.412598,0.541139
7306.612793,0.532268
7306.812988,0.521802
7307.012695,0.512206
7307.212891,0.502176
7307.413086,0.489281
7307.613281,0.475602
7307.812988,0.464852
7308.013184,0.454850
7308.213379,0.443643
7308.413086,0.429713
7308.613281,0.417953
7308.813477,0.407670
7309.013672,0.398123
7309.213379,0.389526
7309.413574,0.379059
7309.613770,0.365978
7309.813477,0.355525
7310.013672,0.346631
7310.213867,0.337202
7310.413574,0.328026
7310.613770,0.316715
7310.813965,0.305690
7311.014160,0.298915
7311.213867,0.291083
7311.414062,0.283782
7311.614258,0.275270
7311.813965,0.266071
7312.014160,0.257280
7312.214355,0.248789
7312.414551,0.242400
7312.614258,0.234679
7312.814453,0.225716
7313.014648,0.219004
7313.214844,0.213064
7313.414551,0.207199
7313.614746,0.201477
7313.814941,0.194943
7314.014648,0.186873
7314.214844,0.181201
7314.415039,0.176106
7314.615234,0.170430
7314.814941,0.164891
7315.015137,0.158695
7315.215332,0.154025
7315.415039,0.149323
7315.615234,0.145515
7315.815430,0.141571
7316.015137,0.136910
7316.215332,0.132194
7316.415527,0.127976
7316.615723,0.124116
7316.815430,0.120512
7317.015625,0.116370
7317.215820,0.111724
7317.415527,0.108659
7317.615723,0.105238
7317.815918,0.102973
7318.016113,0.100087
7318.215820,0.096301
7318.416016,0.092723
7318.616211,0.090212
7318.815918,0.087696
7319.016113,0.085395
7319.216309,0.081695
7319.416504,0.079282
7319.616211,0.077273
7319.816406,0.074925
7320.016602,0.073152
7320.216309,0.070970
7320.416504,0.068724
7320.616699,0.066467
7320.816406,0.064646
7321.016602,0.063016
7321.216797,0.061378
7321.416992,0.059043
7321.616699,0.057404
7321.816895,0.055717
7322.017090,0.054141
7322.216797,0.053110
7322.416992,0.051487
7322.617188,0.049728
7322.817383,0.048159
7323.017090,0.046712
7323.217285,0.045671
7323.417480,0.044375
7323.617188,0.042848
7323.817383,0.041835
7324.017578,0.040543
7324.217773,0.039452
7324.417480,0.038601
7324.617676,0.037549
7324.817871,0.036444
7325.017578,0.035382
7325.217773,0.034493
7325.417969,0.033664
7325.617676,0.032736
7325.817871,0.031850
7326.018066,0.030881
7326.218262,0.030252
7326.417969,0.029454
7326.618164,0.028748
7326.818359,0.027977
7327.018066,0.027260
7327.218262,0.026459
7327.418457,0.025781
7327.618652,0.025110
7327.818359,0.024418
7328.018555,0.023688
7328.218750,0.023105
7328.418457,0.022709
7328.618652,0.022061
7328.818848,0.021650
7329.019043,0.021047
7329.218750,0.020397
7329.418945,0.019952
7329.619141,0.019465
7329.819336,0.019053
7330.019043,0.018551
7330.219238,0.017964
7330.419434,0.017652
7330.619141,0.017337
7330.819336,0.016869
7331.019531,0.016374
7331.219238,0.016049
7331.419434,0.015595
7331.619629,0.015241
7331.819824,0.014879
7332.019531,0.014638
7332.219727,0.014195
7332.419922,0.013876
7332.619629,0.013542
7332.819824,0.013302
7333.020020,0.013047
7333.220215,0.012809
7333.419922,0.012392
7333.620117,0.012093
7333.820312,0.011922
7334.020020,0.011547
7334.220215,0.011446
7334.420410,0.011101
7334.620605,0.010829
7334.820312,0.010563
7335.020508,0.010412
7335.220703,0.010229
7335.420410,0.009942
7335.620605,0.009776
7335.820801,0.009509
7336.020508,0.009322
7336.220703,0.009174
7336.420898,0.008926
7336.621094,0.008719
7336.820801,0.008509
7337.020996,0.008340
7337.221191,0.008230
7337.420898,0.008022
7337.621094,0.007900
7337.821289,0.007718
7338.021484,0.007434
7338.221191,0.007357
7338.421387,0.007231
7338.621582,0.006988
7338.821289,0.006941
7339.021484,0.006802
7339.221680,0.006588
7339.421875,0.006563
7339.621582,0.006398
7339.821777,0.006243
7340.021973,0.006153
7340.221680,0.005990
7340.421875,0.005860
7340.622070,0.005768
7340.821777,0.005653
7341.021973,0.005520
7341.222168,0.005421
7341.422363,0.005366
7341.622070,0.005226
7341.822266,0.005111
7342.022461,0.005031
7342.222168,0.004886
7342.422363,0.004826
7342.622559,0.004735
7342.822754,0.004703
7343.022461,0.004610
7343.222656,0.004469
7343.422852,0.004387
7343.622559,0.004332
7343.822754,0.004242
7344.022949,0.004175
7344.223145,0.004080
7344.422852,0.003981
7344.623047,0.003907
7344.823242,0.003837
7345.023438,0.003825
7345.223145,0.003743
7345.423340,0.003706
7345.623535,0.003615
7345.823242,0.003571
7346.023438,0.003465
7346.223633,0.003372
7346.423340,0.003331
7346.623535,0.003227
7346.823730,0.003208
7347.023926,0.003180
7347.223633,0.003136
7347.423828,0.003059
7347.624023,0.003024
7347.823730,0.002960
7348.023926,0.002919
7348.224121,0.002855
7348.424316,0.002820
7348.624023,0.002744
7348.824219,0.002716
7349.024414,0.002655
7349.224121,0.002624
7349.424316,0.002571
7349.624512,0.002565
7349.824707,0.002477
7350.024414,0.002420
7350.224609,0.002391
7350.424805,0.002356
7350.624512,0.002305
7350.824707,0.002309
7351.024902,0.002249
7351.224609,0.002217
7351.424805,0.002144
7351.625000,0.002150
7351.825195,0.002120
7352.024902,0.002025
7352.225098,0.002050
7352.425293,0.002022
7352.625000,0.001988
7352.825195,0.001955
7353.025391,0.001906
7353.225586,0.001885
7353.425293,0.001852
7353.625488,0.001809
7353.825684,0.001855
7354.025391,0.001774
7354.225586,0.001713
7354.425781,0.001690
7354.625977,0.001693
7354.825684,0.001666
7355.025879,0.001632
7355.226074,0.001611
7355.425781,0.001584
7355.625977,0.001584
7355.826172,0.001533
7356.025879,0.001490
7356.226074,0.001476
7356.426270,0.001480
7356.626465,0.001443
7356.826172,0.001458
7357.026367,0.001430
7357.226562,0.001395
7357.426270,0.001340
7357.626465,0.001343
7357.826660,0.001343
7358.026855,0.001308
7358.226562,0.001266
7358.426758,0.001247
7358.626953,0.001242
7358.826660,0.001197
7359.026855,0.001197
7359.227051,0.001185
7359.426758,0.001146
7359.626953,0.001174
7359.827148,0.001121
7360.027344,0.001112
7360.227539,0.001093
7360.427246,0.001097
7360.627441,0.001045
7360.827637,0.001074
7361.027344,0.001051
7361.227539,0.001032
7361.427734,0.001030
7361.627441,0.001007
7361.827637,0.001002
7362.027832,0.000971
7362.228027,0.000964
7362.427734,0.000926
7362.627930,0.000923
7362.828125,0.000914
7363.027832,0.000902
7363.228027,0.000880
7363.428223,0.000891
7363.628418,0.000867
7363.828125,0.000893
7364.028320,0.000845
7364.228516,0.000795
7364.428223,0.000790
7364.628418,0.000788
7364.828613,0.000791
7365.028809,0.000775
7365.228516,0.000773
7365.428711,0.000757
7365.628906,0.000764
7365.828613,0.000754
7366.028809,0.000765
7366.229004,0.000703
7366.428711,0.000720
7366.628906,0.000723
7366.829102,0.000711
7367.029297,0.000688
7367.229004,0.000653
7367.429199,0.000667
7367.629395,0.000661
7367.829102,0.000652
7368.029297,0.000640
7368.229492,0.000679
7368.429688,0.000623
7368.629395,0.000651
7368.829590,0.000599
7369.029785,0.000614
7369.229492,0.000592
7369.429688,0.000566
7369.629883,0.000576
7369.830078,0.000563
7370.029785,0.000590
7370.229980,0.000562
7370.430176,0.000557
7370.629883,0.000560
7370.830078,0.000561
7371.030273,0.000530
7371.229980,0.000493
7371.430176,0.000525
7371.630371,0.000550
7371.830566,0.000521
7372.030273,0.000525
7372.230469,0.000499
7372.430664,0.000488
7372.630371,0.000499
7372.830566,0.000467
7373.030762,0.000480
7373.230957,0.000455
7373.430664,0.000469
7373.630859,0.000455
7373.831055,0.000461
7374.030762,0.000471
7374.230957,0.000456
7374.431152,0.000463
7374.630859,0.000445
7374.831055,0.000435
7375.031250,0.000409
7375.231445,0.000394
7375.431641,0.000432
7375.631348,0.000417
7375.831543,0.000409
7376.031738,0.000419
7376.231445,0.000401
7376.431641,0.000397
7376.631836,0.000406
7376.831543,0.000396
7377.031738,0.000393
7377.231934,0.000422
7377.432129,0.000374
7377.631836,0.000353
7377.832031,0.000366
7378.032227,0.000338
7378.231934,0.000352
7378.432129,0.000340
7378.632324,0.000327
7378.832520,0.000346
7379.032227,0.000311
7379.232422,0.000332
7379.432617,0.000333
7379.632324,0.000341
7379.832520,0.000295
7380.032715,0.000297
7380.232910,0.000319
7380.432617,0.000314
7380.632812,0.000325
7380.833008,0.000288
7381.032715,0.000302
7381.232910,0.000319
7381.433105,0.000319
7381.632812,0.000296
7381.833008,0.000296
7382.033203,0.000285
7382.233398,0.000281
7382.433105,0.000264
7382.633301,0.000255
7382.833496,0.000275
7383.033203,0.000235
7383.233398,0.000278
7383.433594,0.000233
7383.633789,0.000231
7383.833496,0.000241
7384.033691,0.000252
7384.233887,0.000228
7384.433594,0.000241
7384.633789,0.000213
7384.833984,0.000241
7385.034180,0.000240
7385.233887,0.000231
7385.434082,0.000243
7385.634277,0.000252
7385.833984,0.000220
7386.034180,0.000236
7386.234375,0.000232
7386.434082,0.000210
7386.634277,0.000204
7386.834473,0.000219
7387.034668,0.000199
7387.234375,0.000176
7387.434570,0.000185
7387.634766,0.000201
7387.834473,0.000210
7388.034668,0.000182
7388.234863,0.000188
7388.435059,0.000157
7388.634766,0.000177
7388.834961,0.000207
7389.035156,0.000180
7389.234863,0.000177
7389.435059,0.000180
7389.635254,0.000167
7389.834961,0.000171
7390.035156,0.000179
7390.235352,0.000182
7390.435547,0.000183
7390.635742,0.000187
7390.835449,0.000175
7391.035645,0.000156
7391.235840,0.000155
7391.435547,0.000139
7391.635742,0.000175
7391.835938,0.000159
7392.035645,0.000164
7392.235840,0.000156
7392.436035,0.000152
7392.636230,0.000149
7392.835938,0.000129
7393.036133,0.000159
7393.236328,0.000150
7393.436035,0.000140
7393.636230,0.000151
7393.836426,0.000165
7394.036621,0.000168
7394.236328,0.000162
7394.436523,0.000111
7394.636719,0.000152
7394.836426,0.000160
7395.036621,0.000157
7395.236816,0.000140
7395.437012,0.000144
7395.636719,0.000132
7395.836914,0.000130
7396.037109,0.000131
7396.236816,0.000138
7396.437012,0.000108
7396.637207,0.000126
7396.836914,0.000140
7397.037109,0.000139
7397.237305,0.000114
7397.437500,0.000129
7397.637207,0.000130
7397.837402,0.000141
7398.037598,0.000125
7398.237305,0.000099
7398.437500,0.000115
7398.637695,0.000121
7398.837891,0.000101
7399.037598,0.000122
7399.237793,0.000134
7399.437988,0.000134
7399.637695,0.000098
7399.837891,0.000118
7411.241211,0.000090
7421.243652,0.000057
7431.246582,0.000038
7441.249023,0.000026
7451.251953,0.000019
7461.254395,0.000014
7471.257324,0.000010
7481.259766,0.000008
7491.262695,0.000006
7501.265137,0.000005
7511.268066,0.000004
7521.270508,0.000003
7531.273438,0.000003
7541.275879,0.000002
7551.278809,0.000002
7561.281738,0.000002
7571.284180,0.000002
7581.287109,0.000001
7591.289551,0.000001
7601.292480,0.000001
7611.294922,0.000001
7621.297852,0.000001
7631.300293,0.000001
7641.303223,0.000001
7651.305664,0.000001
7661.308594,0.000001
7671.311035,0.000001
7681.313965,0.000001
7691.316406,0.000000
7701.319336,0.000001
7711.321777,0.000000
7721.324707,0.000000
7731.327148,0.000000
7741.330078,0.000000
7751.332520,0.000000
7761.335449,0.000000
7771.337891,0.000000
7781.340820,0.000000
7791.343262,0.000000
7801.346191,0.000000
7811.349121,0.000000
7821.351562,0.000000
7831.354492,0.000000
7841.356934,0.000000
7851.359863,0.000000
7861.362305,0.000000
7871.365234,0.000000
7881.367676,0.000000
7891.370605,0.000000
7901.373047,0.000000
7911.375977,0.000000
7921.378418,0.000000
7931.381348,0.000000
7941.383789,0.000000
7951.386719,0.000000
7961.389160,0.000000
7971.392090,0.000000
7981.395020,0.000000
7991.397461,0.000000
8001.400391,0.000000
8011.402832,0.000000
8021.405762,0.000000
8031.408203,0.000000
8041.411133,0.000000
8051.413574,0.000000
8061.416504,0.000000
8071.419434,0.000000
8081.421875,0.000000
8091.424805,0.000000
8101.427246,0.000000
8111.430176,0.000000
8121.432617,0.000000
8131.435547,0.000000
8141.437988,0.000000
8151.440918,0.000000
8161.443359,0.000000
8171.446289,0.000000
8181.448730,0.000000
8191.451660,0.000000
8201.454102,0.000000
8211.457031,0.000000
8221.459961,0.000000
8231.461914,0.000000
8241.464844,0.000000
8251.467773,0.000000
8261.470703,0.000000
8271.473633,0.000000
8281.475586,0.000000
8291.478516,0.000000
8301.481445,0.000000
8311.484375,0.000000
8321.486328,0.000000
8331.489258,0.000000
8341.492188,0.000000
8351.495117,0.000000
8361.497070,0.000000
8371.500000,0.000000
8381.502930,0.000000
8391.505859,0.000000
8401.507812,0.000000
8411.510742,0.000000
8421.513672,0.000000
8431.516602,0.000000
8441.519531,0.000000
8451.521484,0.000000
8461.524414,0.000000
8471.527344,0.000000
8481.530273,0.000000
8491.532227,0.000001
8501.535156,0.000002
8511.538086,0.000011
8521.541016,0.000000
8531.543945,0.000011
8541.545898,0.000004
8551.548828,0.000000
8561.551758,0.000000
8571.554688,0.000006
8581.556641,0.000008
8591.559570,0.000005
8601.562500,0.000006
8611.565430,0.000004
8621.567383,0.000002
8631.570312,0.000004
8641.573242,0.000003
8651.576172,0.000007
8661.578125,0.000006
8671.581055,0.000002
8681.583984,0.000000
8691.586914,0.000006
8701.589844,0.000005
8711.591797,0.000005
8721.594727,0.000001
8731.597656,0.000007
8741.600586,0.000001
8751.602539,0.000005
8761.605469,0.000000
8771.608398,0.000008
8781.611328,0.000005
8791.614258,0.000000
8801.616211,0.000002
8811.619141,0.000004
8821.622070,0.000003
8831.625000,0.000002
8841.626953,0.000001
8851.629883,0.000003
8861.632812,0.000004
8871.635742,0.000002
8881.638672,0.000000
8891.640625,0.000005
8901.643555,0.000003
8911.646484,0.000003
8921.649414,0.000002
8931.651367,0.000001
8941.654297,0.000001
8951.657227,0.000003
8961.660156,0.000003
8971.662109,0.000003
8981.665039,0.000002
8991.667969,0.000003
9001.670898,0.000002
9011.672852,0.000002
9021.675781,0.000003
9031.678711,0.000001
9041.681641,0.000002
9051.684570,0.000002
9061.686523,0.000002
9071.689453,0.000004
9081.692383,0.000003
9091.695312,0.000004
9101.697266,0.000003
9111.700195,0.000003
9121.703125,0.000003
9131.706055,0.000002
9141.708984,0.000003
9151.710938,0.000005
9161.713867,0.000004
9171.716797,0.000003
9181.719727,0.000003
9191.721680,0.000003
9201.724609,0.000003
9211.727539,0.000002
9221.730469,0.000005
9231.732422,0.000004
9241.735352,0.000003
9251.738281,0.000004
9261.741211,0.000003
9271.744141,0.000002
9281.746094,0.000003
9291.749023,0.000002
9301.751953,0.000003
9311.754883,0.000003
9321.756836,0.000002
9331.759766,0.000002
9341.762695,0.000003
9351.765625,0.000002
9361.768555,0.000003
9371.770508,0.000001
9381.773438,0.000002
9391.776367,0.000001
9401.779297,0.000001
9411.781250,0.000002
9421.784180,0.000001
9431.787109,0.000002
9441.790039,0.000001
9451.792969,0.000001
9461.794922,0.000000
9471.797852,0.000000
9481.800781,0.000001
9491.803711,0.000000
9501.805664,0.000002
9511.808594,0.000000
9521.811523,0.000000
9531.814453,0.000001
9541.816406,0.000000
9551.819336,0.000000
9561.822266,0.000001
9571.825195,0.000000
9581.828125,0.000000
9591.830078,0.000000
9601.833008,0.000000
9611.835938,0.000000
9621.838867,0.000000
9631.840820,0.000000
9641.843750,0.000001
9651.846680,0.000001
9661.849609,0.000000
9671.852539,0.000000
9681.854492,0.000000
9691.857422,0.000000
9701.860352,0.000001
9711.863281,0.000001
9721.865234,0.000001
9731.868164,0.000000
9741.871094,0.000000
9751.874023,0.000000
9761.875977,0.000000
9771.878906,0.000000
9781.881836,0.000000
9791.884766,0.000001
9801.887695,0.000000
9811.889648,0.000000
9821.892578,0.000000
9831.895508,0.000000
9841.898438,0.000000
9851.900391,0.000000
9861.903320,0.000000
9871.906250,0.000000
9881.909180,0.000001
9891.912109,0.000000
9901.914062,0.000000
9911.916992,0.000000
9921.919922,0.000000
9931.922852,0.000000
9941.924805,0.000001
9951.927734,0.000000
9961.930664,0.000000
9971.933594,0.000000
9981.936523,0.000000
9991.938477,0.000000
10001.941406,0.000000
10011.944336,0.000000
10021.947266,0.000000
10031.950195,0.000000
10041.952148,0.000000
10051.955078,0.000000
10061.958008,0.000000
10071.959961,0.000000
10081.962891,0.000000
10091.965820,0.000000
10101.968750,0.000000
10111.970703,0.000000
10121.973633,0.000000
10131.976562,0.000000
10141.978516,0.000000
10151.982422,0.000000
10161.985352,0.000000
10171.988281,0.000000
10181.990234,0.000000
10191.993164,0.000000
10201.996094,0.000000
10211.998047,0.000000
10222.000977,0.000000
10232.003906,0.000000
10242.006836,0.000000
10252.008789,0.000000
10262.011719,0.000000
10272.014648,0.000000
10282.016602,0.000000
10292.019531,0.000000
10302.023438,0.000000
10312.026367,0.000000
10322.028320,0.000000
10332.031250,0.000000
10342.034180,0.000000
10352.036133,0.000001
10362.039062,0.000000
10372.041992,0.000000
10382.043945,0.000000
10392.046875,0.000000
10402.049805,0.000000
10412.052734,0.000000
10422.054688,0.000000
10432.057617,0.000000
10442.060547,0.000000
10452.063477,0.000001
10462.066406,0.000000
10472.069336,0.000000
10482.072266,0.000000
10492.074219,0.000000
10502.077148,0.000000
10512.080078,0.000000
10522.082031,0.000000
10532.084961,0.000000
10542.087891,0.000000
10552.090820,0.000000
10562.092773,0.000000
10572.095703,0.000001
10582.098633,0.000000
10592.100586,0.000000
10602.103516,0.000000
10612.107422,0.000000
10622.110352,0.000000
10632.112305,0.000000
10642.115234,0.000000
10652.118164,0.000000
10662.120117,0.000000
10672.123047,0.000000
10682.125977,0.000000
10692.128906,0.000000
10702.130859,0.000000
10712.133789,0.000000
10722.136719,0.000000
10732.138672,0.000000
10742.141602,0.000000
10752.144531,0.000000
10762.148438,0.000000
10772.150391,0.000000
10782.153320,0.000000
10792.156250,0.000000
10802.158203,0.000000
10812.161133,0.000000
10822.164062,0.000000
10832.166992,0.000000
10842.168945,0.000000
10852.171875,0.000000
10862.174805,0.000000
10872.176758,0.000000
10882.179688,0.000000
10892.182617,0.000000
10902.185547,0.000000
10912.188477,0.000000
10922.191406,0.000000
10932.194336,0.000000
10942.196289,0.000000
10952.199219,0.000000
10962.202148,0.000000
10972.205078,0.000000
10982.207031,0.000000
10992.209961,0.000000
11002.212891,0.000000
11003.212891,0.000000
11004.212891,0.000000
