# WAVELENGTH_UNIT	AA
# COMPNAME       	GROUND_JOHNSON_B
# NAME           	GROUND_JOHNSON_B
# DETECTOR       	energy
#
## WAVELENGTH	None	AA
## THROUGHPUT	None	filter throughput definition
#
WAVELENGTH,THROUGHPUT
3000.000000,-0.005000
3010.000000,-0.005000
3020.000000,-0.005000
3030.000000,-0.005000
3040.000000,-0.005000
3050.000000,-0.005000
3060.000000,0.000000
3070.000000,-0.005000
3080.000000,-0.005000
3090.000000,-0.005000
3100.000000,-0.005000
3110.000000,-0.005000
3120.000000,-0.005000
3130.000000,-0.005000
3140.000000,-0.005000
3150.000000,0.000000
3160.000000,-0.005000
3170.000000,-0.005000
3180.000000,-0.020000
3190.000000,-0.035000
3200.000000,0.000000
3210.000000,-0.005000
3220.000000,0.000000
3230.000000,0.000000
3240.000000,0.000000
3250.000000,-0.005000
3260.000000,-0.005000
3270.000000,-0.005000
3280.000000,0.000000
3290.000000,-0.005000
3300.000000,-0.005000
3310.000000,-0.005000
3320.000000,-0.005000
3330.000000,-0.005000
3340.000000,-0.005000
3350.000000,0.000000
3360.000000,0.000000
3370.000000,0.000000
3380.000000,0.000000
3390.000000,0.000000
3400.000000,-0.005000
3410.000000,-0.005000
3420.000000,-0.005000
3430.000000,-0.005000
3440.000000,-0.005000
3450.000000,0.000000
3460.000000,0.000000
3470.000000,0.005000
3480.000000,0.015000
3490.000000,0.040000
3500.000000,0.080000
3510.000000,0.155000
3520.000000,0.275000
3530.000000,0.455000
3540.000000,0.710000
3550.000000,1.065000
3560.000000,1.535000
3570.000000,2.125000
3580.000000,2.855000
3590.000000,3.715000
3600.000000,4.730000
3610.000000,5.880000
3620.000000,7.155000
3630.000000,8.525000
3640.000000,9.965000
3650.000000,11.540000
3660.000000,13.170000
3670.000000,14.865000
3680.000000,16.565000
3690.000000,18.365000
3700.000000,20.155000
3710.000000,21.895000
3720.000000,23.720000
3730.000000,25.520000
3740.000000,27.255000
3750.000000,28.965000
3760.000000,30.700000
3770.000000,32.220000
3780.000000,33.745000
3790.000000,35.470000
3800.000000,36.960000
3810.000000,38.435000
3820.000000,39.885000
3830.000000,41.225000
3840.000000,42.585000
3850.000000,43.870000
3860.000000,45.120000
3870.000000,46.280000
3880.000000,47.405000
3890.000000,48.465000
3900.000000,49.540000
3910.000000,50.625000
3920.000000,51.550000
3930.000000,52.405000
3940.000000,53.340000
3950.000000,54.210000
3960.000000,55.000000
3970.000000,55.785000
3980.000000,56.485000
3990.000000,57.150000
4000.000000,57.790000
4010.000000,58.480000
4020.000000,59.045000
4030.000000,59.635000
4040.000000,60.205000
4050.000000,60.695000
4060.000000,61.245000
4070.000000,61.675000
4080.000000,62.165000
4090.000000,62.570000
4100.000000,63.005000
4110.000000,63.350000
4120.000000,63.760000
4130.000000,64.105000
4140.000000,64.445000
4150.000000,64.770000
4160.000000,65.120000
4170.000000,65.475000
4180.000000,65.730000
4190.000000,66.045000
4200.000000,66.335000
4210.000000,66.475000
4220.000000,66.705000
4230.000000,66.885000
4240.000000,67.040000
4250.000000,67.160000
4260.000000,67.185000
4270.000000,67.365000
4280.000000,67.475000
4290.000000,67.610000
4300.000000,67.625000
4310.000000,67.735000
4320.000000,67.760000
4330.000000,67.710000
4340.000000,67.755000
4350.000000,67.735000
4360.000000,67.645000
4370.000000,67.625000
4380.000000,67.580000
4390.000000,67.575000
4400.000000,67.500000
4410.000000,67.475000
4420.000000,67.415000
4430.000000,67.245000
4440.000000,67.110000
4450.000000,66.920000
4460.000000,66.710000
4470.000000,66.435000
4480.000000,66.155000
4490.000000,65.815000
4500.000000,65.430000
4510.000000,65.115000
4520.000000,64.770000
4530.000000,64.460000
4540.000000,64.155000
4550.000000,63.740000
4560.000000,63.415000
4570.000000,62.920000
4580.000000,62.410000
4590.000000,61.870000
4600.000000,61.230000
4610.000000,60.625000
4620.000000,59.880000
4630.000000,59.165000
4640.000000,58.330000
4650.000000,57.390000
4660.000000,56.405000
4670.000000,55.315000
4680.000000,54.210000
4690.000000,53.015000
4700.000000,51.725000
4710.000000,50.460000
4720.000000,49.090000
4730.000000,47.720000
4740.000000,46.380000
4750.000000,44.960000
4760.000000,43.565000
4770.000000,42.135000
4780.000000,40.685000
4790.000000,39.255000
4800.000000,37.780000
4810.000000,36.315000
4820.000000,34.785000
4830.000000,33.340000
4840.000000,31.880000
4850.000000,30.435000
4860.000000,29.035000
4870.000000,27.650000
4880.000000,26.315000
4890.000000,25.070000
4900.000000,23.825000
4910.000000,22.650000
4920.000000,21.555000
4930.000000,20.530000
4940.000000,19.560000
4950.000000,18.635000
4960.000000,17.810000
4970.000000,17.025000
4980.000000,16.265000
4990.000000,15.540000
5000.000000,14.785000
5010.000000,14.020000
5020.000000,13.230000
5030.000000,12.420000
5040.000000,11.590000
5050.000000,10.770000
5060.000000,9.975000
5070.000000,9.225000
5080.000000,8.530000
5090.000000,7.895000
5100.000000,7.295000
5110.000000,6.765000
5120.000000,6.275000
5130.000000,5.815000
5140.000000,5.360000
5150.000000,4.945000
5160.000000,4.525000
5170.000000,4.140000
5180.000000,3.775000
5190.000000,3.425000
5200.000000,3.105000
5210.000000,2.800000
5220.000000,2.515000
5230.000000,2.260000
5240.000000,2.030000
5250.000000,1.815000
5260.000000,1.625000
5270.000000,1.460000
5280.000000,1.315000
5290.000000,1.190000
5300.000000,1.085000
5310.000000,0.990000
5320.000000,0.910000
5330.000000,0.845000
5340.000000,0.795000
5350.000000,0.750000
5360.000000,0.710000
5370.000000,0.680000
5380.000000,0.655000
5390.000000,0.635000
5400.000000,0.625000
5410.000000,0.620000
5420.000000,0.620000
5430.000000,0.620000
5440.000000,0.630000
5450.000000,0.645000
5460.000000,0.665000
5470.000000,0.700000
5480.000000,0.730000
5490.000000,0.780000
5500.000000,0.830000
5510.000000,0.885000
5520.000000,0.935000
5530.000000,1.000000
5540.000000,1.055000
5550.000000,1.110000
5560.000000,1.155000
5570.000000,1.195000
5580.000000,1.225000
5590.000000,1.235000
5600.000000,1.240000
5610.000000,1.220000
5620.000000,1.135000
5630.000000,1.175000
5640.000000,1.130000
5650.000000,1.080000
5660.000000,1.020000
5670.000000,0.950000
5680.000000,0.885000
5690.000000,0.805000
5700.000000,0.725000
5710.000000,0.655000
5720.000000,0.575000
5730.000000,0.505000
5740.000000,0.435000
5750.000000,0.370000
5760.000000,0.310000
5770.000000,0.265000
5780.000000,0.220000
5790.000000,0.180000
5800.000000,0.145000
5810.000000,0.120000
5820.000000,0.095000
5830.000000,0.075000
5840.000000,0.060000
5850.000000,0.050000
5860.000000,0.040000
5870.000000,0.035000
5880.000000,0.030000
5890.000000,0.025000
5900.000000,0.020000
5910.000000,0.015000
5920.000000,0.015000
5930.000000,0.015000
5940.000000,0.015000
5950.000000,0.015000
5960.000000,0.015000
5970.000000,0.015000
5980.000000,0.015000
5990.000000,0.015000
6000.000000,0.015000
6010.000000,0.015000
6020.000000,0.010000
6030.000000,0.015000
6040.000000,0.015000
6050.000000,0.010000
6060.000000,0.015000
6070.000000,0.015000
6080.000000,0.010000
6090.000000,0.015000
6100.000000,0.010000
6110.000000,0.010000
6120.000000,0.010000
6130.000000,0.010000
6140.000000,0.010000
6150.000000,0.010000
6160.000000,0.010000
6170.000000,0.005000
6180.000000,0.005000
6190.000000,0.005000
6200.000000,0.005000
6210.000000,0.005000
6220.000000,0.005000
6230.000000,0.005000
6240.000000,0.000000
6250.000000,0.000000
6260.000000,0.005000
6270.000000,0.000000
6280.000000,0.000000
6290.000000,0.000000
6300.000000,0.000000
6310.000000,0.005000
6320.000000,0.000000
6330.000000,0.000000
6340.000000,0.000000
6350.000000,0.000000
6360.000000,0.000000
6370.000000,0.000000
6380.000000,0.000000
6390.000000,0.000000
6400.000000,0.000000
6410.000000,0.000000
6420.000000,0.000000
6430.000000,-0.005000
6440.000000,-0.005000
6450.000000,0.000000
6460.000000,-0.005000
6470.000000,0.000000
6480.000000,-0.005000
6490.000000,0.000000
6500.000000,0.000000
6510.000000,-0.005000
6520.000000,0.000000
6530.000000,0.000000
6540.000000,0.000000
6550.000000,-0.005000
6560.000000,-0.005000
6570.000000,-0.005000
6580.000000,-0.005000
6590.000000,0.000000
6600.000000,-0.005000
6610.000000,0.000000
6620.000000,0.000000
6630.000000,0.000000
6640.000000,-0.005000
6650.000000,0.000000
6660.000000,-0.005000
6670.000000,0.000000
6680.000000,0.000000
6690.000000,-0.005000
6700.000000,-0.005000
6710.000000,0.000000
6720.000000,0.000000
6730.000000,0.000000
6740.000000,0.000000
6750.000000,0.000000
6760.000000,0.000000
6770.000000,0.000000
6780.000000,0.000000
6790.000000,0.000000
6800.000000,0.000000
6810.000000,-0.005000
6820.000000,0.000000
6830.000000,0.000000
6840.000000,0.000000
6850.000000,0.000000
6860.000000,0.000000
6870.000000,0.000000
6880.000000,0.000000
6890.000000,-0.005000
6900.000000,-0.060000
6910.000000,-0.005000
6920.000000,0.000000
6930.000000,0.000000
6940.000000,0.000000
6950.000000,0.000000
6960.000000,0.000000
6970.000000,-0.005000
6980.000000,0.000000
6990.000000,0.000000
7000.000000,0.000000
7010.000000,0.000000
7020.000000,0.000000
7030.000000,0.000000
7040.000000,0.000000
7050.000000,-0.005000
7060.000000,0.000000
7070.000000,-0.005000
7080.000000,0.000000
7090.000000,0.000000
7100.000000,0.000000
7110.000000,0.000000
7120.000000,0.000000
7130.000000,-0.005000
7140.000000,0.000000
7150.000000,0.000000
7160.000000,0.000000
7170.000000,0.000000
7180.000000,-0.005000
7190.000000,-0.005000
7200.000000,0.000000
7210.000000,0.000000
7220.000000,0.000000
7230.000000,0.000000
7240.000000,0.000000
7250.000000,0.000000
7260.000000,0.000000
7270.000000,-0.005000
7280.000000,-0.005000
7290.000000,0.000000
7300.000000,0.000000
7310.000000,0.000000
7320.000000,0.000000
7330.000000,-0.005000
7340.000000,-0.005000
7350.000000,0.000000
7360.000000,0.000000
7370.000000,0.000000
7380.000000,0.000000
7390.000000,-0.005000
7400.000000,0.000000
7410.000000,0.000000
7420.000000,0.000000
7430.000000,-0.005000
7440.000000,-0.005000
7450.000000,-0.005000
7460.000000,0.000000
7470.000000,0.000000
7480.000000,0.000000
7490.000000,0.000000
7500.000000,-0.005000
7510.000000,0.000000
7520.000000,0.000000
7530.000000,-0.005000
7540.000000,-0.005000
7550.000000,0.000000
7560.000000,0.000000
7570.000000,-0.005000
7580.000000,0.000000
7590.000000,-0.005000
7600.000000,-0.005000
7610.000000,0.000000
7620.000000,0.000000
7630.000000,-0.005000
7640.000000,0.000000
7650.000000,0.000000
7660.000000,-0.005000
7670.000000,0.000000
7680.000000,0.000000
7690.000000,0.000000
7700.000000,0.000000
7710.000000,-0.005000
7720.000000,0.000000
7730.000000,0.000000
7740.000000,0.000000
7750.000000,0.000000
7760.000000,0.000000
7770.000000,0.000000
7780.000000,0.000000
7790.000000,0.000000
7800.000000,0.000000
7810.000000,0.000000
7820.000000,0.000000
7830.000000,-0.005000
7840.000000,0.000000
7850.000000,0.000000
7860.000000,0.000000
7870.000000,-0.005000
7880.000000,0.000000
7890.000000,0.000000
7900.000000,0.000000
7910.000000,0.000000
7920.000000,-0.005000
7930.000000,0.000000
7940.000000,0.000000
7950.000000,0.000000
7960.000000,0.000000
7970.000000,0.000000
7980.000000,0.000000
7990.000000,0.000000
8000.000000,0.000000
8010.000000,0.000000
8020.000000,0.000000
8030.000000,0.000000
8040.000000,0.000000
8050.000000,0.000000
8060.000000,0.000000
8070.000000,0.000000
8080.000000,-0.005000
8090.000000,0.000000
8100.000000,-0.025000
8110.000000,0.000000
8120.000000,0.000000
8130.000000,0.000000
8140.000000,0.000000
8150.000000,-0.005000
8160.000000,0.000000
8170.000000,0.000000
8180.000000,0.000000
8190.000000,0.000000
8200.000000,0.000000
8210.000000,0.000000
8220.000000,0.000000
8230.000000,0.000000
8240.000000,0.000000
8250.000000,0.000000
8260.000000,0.000000
8270.000000,0.000000
8280.000000,0.000000
8290.000000,0.000000
8300.000000,0.000000
8310.000000,0.000000
8320.000000,0.000000
8330.000000,0.005000
8340.000000,0.005000
8350.000000,0.000000
8360.000000,0.005000
8370.000000,0.005000
8380.000000,0.000000
8390.000000,0.000000
8400.000000,0.000000
8410.000000,0.005000
8420.000000,0.005000
8430.000000,0.000000
8440.000000,0.005000
8450.000000,0.000000
8460.000000,0.000000
8470.000000,0.000000
8480.000000,0.000000
8490.000000,0.000000
8500.000000,0.000000
8510.000000,0.000000
8520.000000,0.000000
8530.000000,0.005000
8540.000000,0.000000
8550.000000,0.000000
8560.000000,-0.005000
8570.000000,-0.005000
8580.000000,0.005000
8590.000000,-0.005000
8600.000000,0.020000
8610.000000,-0.140000
8620.000000,0.165000
8630.000000,-0.030000
8640.000000,-0.020000
8650.000000,-0.060000
8660.000000,0.030000
8670.000000,-0.055000
8680.000000,0.255000
8690.000000,0.015000
8700.000000,-0.135000
8710.000000,-0.070000
8720.000000,0.015000
8730.000000,0.100000
8740.000000,0.030000
8750.000000,0.005000
8760.000000,-0.020000
8770.000000,0.085000
8780.000000,-0.050000
8790.000000,0.040000
8800.000000,0.035000
8810.000000,-0.020000
8820.000000,-0.020000
8830.000000,0.065000
8840.000000,0.065000
8850.000000,-0.060000
8860.000000,0.145000
8870.000000,0.015000
8880.000000,-0.020000
8890.000000,-0.070000
8900.000000,-0.075000
8910.000000,0.070000
8920.000000,-0.085000
8930.000000,-0.045000
8940.000000,0.000000
8950.000000,0.150000
8960.000000,0.140000
8970.000000,-0.025000
8980.000000,-0.045000
8990.000000,0.085000
9000.000000,-0.055000
9010.000000,0.125000
9020.000000,-0.150000
9030.000000,0.285000
9040.000000,0.045000
9050.000000,-0.085000
9060.000000,-0.110000
9070.000000,-0.065000
9080.000000,0.170000
9090.000000,-0.040000
9100.000000,0.000000
9110.000000,-0.040000
9120.000000,-0.035000
9130.000000,0.065000
9140.000000,0.065000
9150.000000,-0.040000
9160.000000,0.070000
9170.000000,-0.035000
9180.000000,0.085000
9190.000000,-0.015000
9200.000000,0.040000
9210.000000,0.025000
9220.000000,-0.005000
9230.000000,0.095000
9240.000000,-0.025000
9250.000000,0.105000
9260.000000,-0.005000
9270.000000,-0.140000
9280.000000,-0.005000
9290.000000,0.075000
9300.000000,-0.110000
9310.000000,0.080000
9320.000000,-0.065000
9330.000000,-0.015000
9340.000000,0.020000
9350.000000,-0.075000
9360.000000,-0.095000
9370.000000,0.035000
9380.000000,0.060000
9390.000000,0.040000
9400.000000,0.075000
9410.000000,0.020000
9420.000000,-0.035000
9430.000000,-0.005000
9440.000000,0.000000
9450.000000,-0.030000
9460.000000,0.015000
9470.000000,0.015000
9480.000000,-0.075000
9490.000000,0.075000
9500.000000,0.035000
9510.000000,-0.125000
9520.000000,-0.015000
9530.000000,0.090000
9540.000000,-0.055000
9550.000000,-0.010000
9560.000000,-0.120000
9570.000000,0.175000
9580.000000,-0.090000
9590.000000,0.030000
9600.000000,0.090000
9610.000000,0.035000
9620.000000,-0.020000
9630.000000,0.065000
9640.000000,0.145000
9650.000000,0.180000
9660.000000,0.065000
9670.000000,0.050000
9680.000000,-0.070000
9690.000000,-0.080000
9700.000000,-0.105000
9710.000000,0.140000
9720.000000,0.140000
9730.000000,-0.005000
9740.000000,0.020000
9750.000000,0.125000
9760.000000,0.010000
9770.000000,0.065000
9780.000000,-0.135000
9790.000000,-0.060000
9800.000000,-0.010000
9810.000000,-0.100000
9820.000000,-0.040000
9830.000000,0.040000
9840.000000,0.015000
9850.000000,0.190000
9860.000000,-0.020000
9870.000000,-0.035000
9880.000000,0.000000
9890.000000,0.005000
9900.000000,0.025000
9910.000000,0.205000
9920.000000,-0.015000
9930.000000,-0.065000
9940.000000,-0.115000
9950.000000,0.030000
9960.000000,0.035000
9970.000000,0.275000
9980.000000,-0.075000
9990.000000,0.065000
10000.000000,0.045000
10010.000000,-0.035000
10020.000000,-0.030000
10030.000000,0.015000
10040.000000,0.200000
10050.000000,0.050000
10060.000000,0.040000
10070.000000,-0.045000
10080.000000,0.030000
10090.000000,-0.015000
10100.000000,0.040000
10110.000000,-0.095000
10120.000000,0.020000
10130.000000,0.205000
10140.000000,-0.040000
10150.000000,0.080000
10160.000000,-0.075000
10170.000000,-0.005000
10180.000000,0.015000
10190.000000,0.090000
10200.000000,0.060000
10210.000000,-0.130000
10220.000000,-0.085000
10230.000000,0.130000
10240.000000,-0.030000
10250.000000,-0.015000
10260.000000,0.055000
10270.000000,0.015000
10280.000000,0.085000
10290.000000,-0.005000
10300.000000,0.060000
10310.000000,-0.085000
10320.000000,-0.110000
10330.000000,0.210000
10340.000000,0.155000
10350.000000,-0.020000
10360.000000,0.215000
10370.000000,0.015000
10380.000000,-0.005000
10390.000000,-0.180000
10400.000000,0.005000
10410.000000,0.050000
10420.000000,0.080000
10430.000000,0.140000
10440.000000,-0.015000
10450.000000,0.070000
10460.000000,-0.035000
10470.000000,-0.005000
10480.000000,0.055000
10490.000000,-0.090000
10500.000000,-0.080000
10510.000000,-0.005000
10520.000000,0.030000
10530.000000,0.040000
10540.000000,0.025000
10550.000000,0.105000
10560.000000,-0.135000
10570.000000,-0.010000
10580.000000,-0.040000
10590.000000,-0.005000
10600.000000,-0.040000
10610.000000,0.055000
10620.000000,-0.095000
10630.000000,0.180000
10640.000000,0.155000
10650.000000,0.135000
10660.000000,0.085000
10670.000000,-0.090000
10680.000000,-0.065000
10690.000000,0.000000
10700.000000,0.035000
10710.000000,0.010000
10720.000000,0.020000
10730.000000,0.080000
10740.000000,0.045000
10750.000000,0.015000
10760.000000,-0.085000
10770.000000,-0.110000
10780.000000,0.010000
10790.000000,-0.040000
10800.000000,-0.030000
10810.000000,-0.055000
10820.000000,-0.050000
10830.000000,0.040000
10840.000000,0.145000
10850.000000,0.065000
10860.000000,0.045000
10870.000000,0.055000
10880.000000,0.075000
10890.000000,0.135000
10900.000000,-0.060000
10910.000000,0.005000
10920.000000,-0.125000
10930.000000,-0.115000
10940.000000,-0.010000
10950.000000,-0.130000
10960.000000,0.165000
10970.000000,0.025000
10980.000000,0.030000
10990.000000,-0.010000
11000.000000,0.055000
11010.000000,0.040000
11020.000000,-0.060000
11030.000000,0.070000
11040.000000,0.030000
11050.000000,-0.045000
11060.000000,-0.045000
11070.000000,-0.075000
11080.000000,-0.085000
11090.000000,0.045000
11100.000000,0.035000
11110.000000,0.080000
11120.000000,0.025000
11130.000000,0.055000
11140.000000,0.015000
11150.000000,0.085000
11160.000000,-0.085000
11170.000000,0.085000
11180.000000,-0.015000
11190.000000,0.005000
11200.000000,-0.175000
11210.000000,0.050000
11220.000000,-0.070000
11230.000000,-0.140000
11240.000000,0.005000
11250.000000,-0.010000
11260.000000,-0.070000
11270.000000,0.005000
11280.000000,-0.025000
11290.000000,-0.020000
11300.000000,-0.130000
11310.000000,-0.045000
11320.000000,0.160000
11330.000000,0.030000
11340.000000,-0.095000
11350.000000,-0.205000
11360.000000,-0.015000
11370.000000,-0.030000
11380.000000,-0.080000
11390.000000,0.015000
11400.000000,0.125000
11410.000000,-0.040000
11420.000000,0.025000
11430.000000,0.010000
11440.000000,0.030000
11450.000000,-0.155000
11460.000000,0.015000
11470.000000,0.000000
11480.000000,-0.090000
11490.000000,-0.060000
11500.000000,0.015000
11510.000000,-0.020000
11520.000000,0.035000
11530.000000,0.035000
11540.000000,0.105000
11550.000000,-0.010000
11560.000000,0.010000
11570.000000,0.005000
11580.000000,0.075000
11590.000000,0.005000
11600.000000,-0.055000
11610.000000,0.045000
11620.000000,0.055000
11630.000000,-0.085000
11640.000000,0.020000
11650.000000,-0.085000
11660.000000,-0.165000
11670.000000,0.110000
11680.000000,-0.175000
11690.000000,0.125000
11700.000000,0.015000
11710.000000,0.010000
11720.000000,-0.085000
11730.000000,-0.115000
11740.000000,-0.120000
11750.000000,-0.100000
11760.000000,0.050000
11770.000000,-0.050000
11780.000000,0.035000
11790.000000,-0.035000
11800.000000,0.100000
11810.000000,-0.005000
11820.000000,-0.015000
11830.000000,0.030000
11840.000000,0.065000
11850.000000,0.065000
11860.000000,0.050000
11870.000000,-0.095000
11880.000000,-0.160000
11890.000000,-0.175000
11900.000000,-0.160000
11910.000000,-0.080000
11920.000000,-0.055000
11930.000000,0.050000
11940.000000,-0.075000
11950.000000,0.030000
11960.000000,0.030000
11970.000000,0.160000
11980.000000,-0.110000
11990.000000,-0.005000
12000.000000,0.055000
