# WAVELENGTH_UNIT	AA
# COMPNAME       	HST_WFC3_F657N
# NAME           	HST_WFC3_F657N
# DETECTOR       	photon
#
## WAVELENGTH	None	AA
## THROUGHPUT	None	filter throughput definition
#
WAVELENGTH,THROUGHPUT
1938.638306,0.000000
1939.638306,0.000000
1940.638306,0.000000
1950.639893,0.000000
1960.641357,0.000000
1970.643066,0.000000
1980.644653,0.000000
1990.646362,0.000000
2000.648193,0.000000
2010.649902,0.000000
2020.651733,0.000000
2030.653442,0.000000
2040.655273,0.000000
2050.656982,0.000000
2060.658936,0.000000
2070.660889,0.000000
2080.662842,0.000000
2090.664795,0.000000
2100.666748,0.000000
2110.668701,0.000000
2120.670654,0.000000
2130.672607,0.000000
2140.674561,0.000000
2150.676514,0.000000
2160.678711,0.000000
2170.680664,0.000000
2180.682861,0.000000
2190.684814,0.000000
2200.687012,0.000000
2210.688965,0.000000
2220.691162,0.000000
2230.693115,0.000000
2240.695312,0.000000
2250.697510,0.000000
2260.699707,0.000000
2270.701904,0.000000
2280.704102,0.000000
2290.706299,0.000000
2300.708496,0.000000
2310.710449,0.000000
2320.712891,0.000000
2330.715088,0.000000
2340.717285,0.000000
2350.719482,0.000000
2360.721680,0.000000
2370.723877,0.000000
2380.726074,0.000000
2390.728516,0.000000
2400.730713,0.000000
2410.732910,0.000000
2420.735107,0.000000
2430.737549,0.000000
2440.739746,0.000000
2450.742188,0.000000
2460.744385,0.000000
2470.746582,0.000000
2480.749023,0.000000
2490.751221,0.000000
2500.753662,0.000000
2510.756104,0.000000
2520.758301,0.000000
2530.760498,0.000000
2540.762939,0.000000
2550.765381,0.000000
2560.767578,0.000000
2570.770020,0.000000
2580.772461,0.000000
2590.774902,0.000000
2600.777100,0.000000
2610.779541,0.000000
2620.781982,0.000000
2630.784180,0.000000
2640.786621,0.000000
2650.789062,0.000000
2660.791504,0.000000
2670.793701,0.000000
2680.796143,0.000000
2690.798584,0.000000
2700.801025,0.000000
2710.803467,0.000000
2720.805908,0.000000
2730.808350,0.000000
2740.810791,0.000000
2750.812988,0.000000
2760.815674,0.000000
2770.818115,0.000000
2780.820312,0.000000
2790.822998,0.000000
2800.825195,0.000000
2810.827881,0.000000
2820.830078,0.000000
2830.832520,0.000000
2840.835205,0.000000
2850.837646,0.000000
2860.840088,0.000000
2870.842529,0.000000
2880.844971,0.000000
2890.847412,0.000000
2900.849854,0.000000
2910.852295,0.000000
2920.854736,0.000000
2930.857422,0.000000
2940.859863,0.000000
2950.862305,0.000000
2960.864746,0.000000
2970.867188,0.000000
2980.869629,0.000000
2990.872314,0.000000
3000.874756,0.000000
3010.877197,0.000000
3020.879639,0.000000
3030.882080,0.000000
3040.884766,0.000000
3050.887207,0.000000
3060.889648,0.000000
3070.892090,0.000000
3080.894775,0.000000
3090.897217,0.000000
3100.899658,0.000000
3110.902100,0.000000
3120.904785,0.000000
3130.907227,0.000000
3140.909912,0.000000
3150.912354,0.000000
3160.914795,0.000000
3170.917236,0.000000
3180.919922,0.000000
3190.922363,0.000000
3200.924805,0.000000
3210.927490,0.000000
3220.929932,0.000000
3230.932617,0.000000
3240.935059,0.000000
3250.937500,0.000000
3260.940186,0.000000
3270.942627,0.000000
3280.945312,0.000000
3290.947754,0.000000
3300.950195,0.000000
3310.952881,0.000000
3320.955322,0.000000
3330.958008,0.000000
3340.960449,0.000000
3350.962891,0.000000
3360.965576,0.000000
3370.968018,0.000000
3380.970703,0.000000
3390.973145,0.000000
3400.975830,0.000000
3410.978271,0.000000
3420.980957,0.000000
3430.983398,0.000000
3440.986084,0.000000
3450.988525,0.000000
3460.991211,0.000000
3470.993652,0.000000
3480.996338,0.000000
3490.998779,0.000000
3501.001465,0.000000
3511.003906,0.000000
3521.006592,0.000000
3531.009033,0.000000
3541.011719,0.000000
3551.014404,0.000000
3561.016846,0.000000
3571.019287,0.000000
3581.021973,0.000000
3591.024658,0.000000
3601.027100,0.000000
3611.029785,0.000000
3621.032227,0.000000
3631.034912,0.000000
3641.037598,0.000000
3651.040039,0.000000
3661.042480,0.000000
3671.045166,0.000000
3681.047852,0.000000
3691.050293,0.000000
3701.052979,0.000000
3711.055664,0.000000
3721.058105,0.000000
3731.060791,0.000000
3741.063232,0.000000
3751.065918,0.000000
3761.068604,0.000000
3771.071045,0.000000
3781.073730,0.000000
3791.076416,0.000000
3801.078857,0.000000
3811.081543,0.000000
3821.083984,0.000000
3831.086670,0.000000
3841.089355,0.000000
3851.091797,0.000000
3861.094482,0.000000
3871.097168,0.000000
3881.099609,0.000000
3891.102295,0.000000
3901.104980,0.000000
3911.107422,0.000000
3921.110107,0.000000
3931.112793,0.000000
3941.115479,0.000000
3951.117920,0.000000
3961.120605,0.000000
3971.123291,0.000000
3981.125732,0.000000
3991.128418,0.000000
4001.131104,0.000000
4011.133545,0.000000
4021.136230,0.000000
4031.138916,0.000000
4041.141602,0.000000
4051.144043,0.000000
4061.146729,0.000000
4071.149414,0.000000
4081.151855,0.000000
4091.154541,0.000000
4101.157227,0.000000
4111.159668,0.000000
4121.162598,0.000000
4131.165039,0.000000
4141.167480,0.000000
4151.170410,0.000000
4161.172852,0.000000
4171.175293,0.000000
4181.178223,0.000000
4191.180664,0.000000
4201.183594,0.000000
4211.186035,0.000000
4221.188477,0.000000
4231.191406,0.000000
4241.193848,0.000000
4251.196289,0.000000
4261.199219,0.000000
4271.201660,0.000000
4281.204590,0.000000
4291.207031,0.000000
4301.209473,0.000000
4311.212402,0.000000
4321.214844,0.000000
4331.217773,0.000000
4341.220215,0.000000
4351.222656,0.000000
4361.225586,0.000000
4371.228027,0.000000
4381.230469,0.000000
4391.233398,0.000000
4401.235840,0.000000
4411.238770,0.000000
4421.241211,0.000000
4431.244141,0.000000
4441.246582,0.000000
4451.249023,0.000000
4461.251953,0.000000
4471.254395,0.000000
4481.257324,0.000000
4491.259766,0.000000
4501.262207,0.000000
4511.265137,0.000000
4521.267578,0.000000
4531.270508,0.000000
4541.272949,0.000000
4551.275391,0.000000
4561.278320,0.000000
4571.280762,0.000000
4581.283691,0.000000
4591.286133,0.000000
4601.288574,0.000000
4611.291504,0.000000
4621.293945,0.000000
4631.296875,0.000000
4641.299316,0.000000
4651.301758,0.000000
4661.304688,0.000000
4671.307129,0.000000
4681.310059,0.000000
4691.312500,0.000000
4701.315430,0.000000
4711.317871,0.000000
4721.320312,0.000000
4731.323242,0.000000
4741.325684,0.000000
4751.328613,0.000000
4761.331055,0.000000
4771.333984,0.000000
4781.336426,0.000000
4791.338867,0.000000
4801.341797,0.000000
4811.344238,0.000000
4821.347168,0.000000
4831.349609,0.000000
4841.352539,0.000000
4851.354980,0.000000
4861.357422,0.000000
4871.360352,0.000000
4881.362793,0.000000
4891.365723,0.000000
4901.368164,0.000000
4911.371094,0.000000
4921.373535,0.000000
4931.375977,0.000000
4941.378906,0.000000
4951.381348,0.000000
4961.384277,0.000000
4971.386719,0.000000
4981.389648,0.000000
4991.392090,0.000000
5001.395020,0.000000
5011.397461,0.000000
5021.399902,0.000000
5031.402832,0.000000
5041.405273,0.000000
5051.408203,0.000000
5061.410645,0.000000
5071.413574,0.000000
5081.416016,0.000000
5091.418945,0.000000
5101.421387,0.000000
5111.424316,0.000000
5121.426758,0.000000
5131.429199,0.000000
5141.432129,0.000000
5151.434570,0.000000
5161.437500,0.000000
5171.439941,0.000000
5181.442871,0.000000
5191.445312,0.000000
5201.448242,0.000000
5211.450684,0.000000
5221.453613,0.000000
5231.456055,0.000000
5241.458496,0.000000
5251.461426,0.000000
5261.463867,0.000000
5271.466797,0.000000
5281.469238,0.000000
5291.472168,0.000000
5301.474609,0.000000
5311.477539,0.000000
5321.479980,0.000000
5331.482910,0.000000
5341.485352,0.000000
5351.487793,0.000000
5361.490723,0.000000
5371.493164,0.000000
5381.496094,0.000000
5391.498535,0.000000
5401.501465,0.000000
5411.503906,0.000000
5421.506836,0.000000
5431.509277,0.000000
5441.512207,0.000000
5451.514648,0.000000
5461.517578,0.000000
5471.520020,0.000000
5481.522461,0.000000
5491.525391,0.000000
5501.527832,0.000000
5511.530762,0.000000
5521.533203,0.000000
5531.536133,0.000000
5541.538574,0.000000
5551.541504,0.000000
5561.543945,0.000000
5571.546875,0.000000
5581.549316,0.000000
5591.552246,0.000000
5601.554688,0.000000
5611.557617,0.000000
5621.560059,0.000000
5631.562988,0.000000
5641.565430,0.000000
5651.567871,0.000000
5661.570801,0.000000
5671.573730,0.000000
5681.576172,0.000000
5691.578613,0.000000
5701.581543,0.000000
5711.583984,0.000000
5721.586914,0.000000
5731.589355,0.000000
5741.592285,0.000000
5751.594727,0.000000
5761.597656,0.000000
5771.600098,0.000000
5781.603027,0.000000
5791.605469,0.000000
5801.608398,0.000000
5811.610840,0.000000
5821.613770,0.000000
5831.616211,0.000000
5841.619141,0.000000
5851.621582,0.000000
5861.624512,0.000000
5871.626953,0.000000
5881.629883,0.000000
5891.632324,0.000000
5901.634766,0.000000
5911.637695,0.000000
5921.640625,0.000000
5931.643066,0.000000
5941.645508,0.000000
5951.648438,0.000000
5961.650879,0.000000
5971.653809,0.000000
5981.656738,0.000000
5991.659180,0.000000
6001.661621,0.000000
6011.664551,0.000000
6021.666992,0.000000
6031.669922,0.000000
6041.672363,0.000000
6051.675293,0.000000
6061.677734,0.000000
6071.680664,0.000000
6081.683105,0.000000
6091.686035,0.000000
6101.688477,0.000000
6111.691406,0.000000
6121.693848,0.000000
6131.696777,0.000000
6141.699219,0.000000
6151.702148,0.000000
6161.704590,0.000000
6171.707520,0.000000
6181.709961,0.000000
6191.712891,0.000000
6201.715332,0.000000
6211.718262,0.000000
6221.720703,0.000000
6231.723633,0.000000
6241.726074,0.000000
6251.729004,0.000000
6261.731445,0.000000
6271.734375,0.000000
6281.736816,0.000000
6291.739746,0.000001
6301.742188,0.000001
6311.745117,0.000001
6321.747559,0.000001
6331.750488,0.000002
6341.752930,0.000003
6351.755859,0.000004
6361.758301,0.000006
6404.770020,0.000021
6405.770020,0.000019
6406.770508,0.000023
6407.770996,0.000024
6408.770996,0.000030
6409.771484,0.000033
6410.771484,0.000031
6411.771973,0.000029
6412.771973,0.000037
6413.772461,0.000036
6414.772461,0.000041
6415.772949,0.000047
6416.773438,0.000048
6417.773438,0.000050
6418.773926,0.000051
6419.773926,0.000057
6420.774414,0.000060
6421.774414,0.000069
6422.774902,0.000074
6423.774902,0.000079
6424.775391,0.000086
6425.775391,0.000092
6426.775879,0.000099
6427.775879,0.000111
6428.776367,0.000117
6429.776855,0.000132
6430.776855,0.000130
6431.777344,0.000145
6432.777344,0.000157
6433.777832,0.000165
6434.777832,0.000176
6435.778320,0.000197
6436.778809,0.000211
6437.778809,0.000230
6438.779297,0.000254
6439.779297,0.000271
6440.779785,0.000291
6441.779785,0.000318
6442.780273,0.000341
6443.780273,0.000383
6444.780762,0.000409
6445.780762,0.000433
6446.781250,0.000480
6447.781738,0.000522
6448.781738,0.000581
6449.782227,0.000615
6450.782227,0.000678
6451.782715,0.000742
6452.782715,0.000803
6453.783203,0.000868
6454.783203,0.000948
6455.783691,0.001060
6456.783691,0.001164
6457.784180,0.001279
6458.784668,0.001404
6459.784668,0.001543
6460.785156,0.001692
6461.785156,0.001892
6462.785645,0.002073
6463.785645,0.002311
6464.786133,0.002533
6465.786133,0.002807
6466.786621,0.003105
6467.787109,0.003473
6468.787109,0.003870
6469.787598,0.004366
6470.787598,0.004873
6471.788086,0.005464
6472.788086,0.006147
6473.788574,0.006909
6474.788574,0.007742
6475.789062,0.008774
6476.789062,0.009992
6477.789551,0.011218
6478.790039,0.012692
6479.790039,0.014318
6480.790527,0.016380
6481.790527,0.018879
6482.791016,0.021813
6483.791016,0.025120
6484.791504,0.028982
6485.791504,0.033724
6486.791992,0.038982
6487.792480,0.045527
6488.792480,0.052761
6489.792969,0.062125
6490.792969,0.072289
6491.793457,0.084800
6492.793457,0.098080
6493.793945,0.115155
6494.793945,0.137187
6495.794434,0.163415
6496.794922,0.193682
6497.794922,0.228361
6498.795410,0.269540
6499.795410,0.316410
6500.795898,0.367392
6501.795898,0.421364
6502.796387,0.480357
6503.796387,0.538763
6504.796875,0.596948
6505.796875,0.648257
6506.797363,0.697070
6507.797363,0.739248
6508.797852,0.774891
6509.798340,0.800144
6510.798340,0.813587
6511.798828,0.819592
6512.798828,0.820891
6513.799316,0.815811
6514.799316,0.808781
6515.799805,0.800949
6516.799805,0.791438
6517.800293,0.781646
6518.800781,0.775977
6519.800781,0.766505
6520.801270,0.760673
6521.801270,0.754914
6522.801758,0.749844
6523.801758,0.747681
6524.802246,0.746332
6525.802734,0.746528
6526.802734,0.747505
6527.803223,0.750687
6528.803223,0.753534
6529.803711,0.757958
6530.803711,0.763257
6531.804199,0.768915
6532.804199,0.773454
6533.804688,0.781988
6534.804688,0.789334
6535.805176,0.798428
6536.805176,0.806607
6537.805664,0.813599
6538.806152,0.822960
6539.806152,0.830949
6540.806641,0.838676
6541.806641,0.847113
6542.807129,0.853192
6543.807129,0.860199
6544.807617,0.867014
6545.807617,0.872451
6546.808105,0.878518
6547.808594,0.883525
6548.808594,0.887444
6549.809082,0.891749
6550.809082,0.895783
6551.809570,0.897824
6552.809570,0.900467
6553.810059,0.901910
6554.810059,0.903768
6555.810547,0.904924
6556.811035,0.903864
6557.811035,0.904323
6558.811523,0.903224
6559.811523,0.903047
6560.812012,0.901921
6561.812012,0.900676
6562.812500,0.898202
6563.812500,0.896883
6564.812988,0.894570
6565.812988,0.892958
6566.813477,0.889699
6567.813965,0.887940
6568.813965,0.885472
6569.814453,0.881595
6570.814453,0.880769
6571.814941,0.878024
6572.814941,0.875025
6573.815430,0.872067
6574.815430,0.869947
6575.815918,0.867573
6576.816406,0.864813
6577.816406,0.862726
6578.816895,0.860904
6579.816895,0.859432
6580.817383,0.857361
6581.817383,0.854513
6582.817871,0.853169
6583.817871,0.853188
6584.818359,0.851717
6585.818359,0.849036
6586.818848,0.848324
6587.819336,0.848546
6588.819336,0.847228
6589.819824,0.847302
6590.819824,0.846103
6591.820312,0.846216
6592.820312,0.844960
6593.820801,0.844927
6594.820801,0.844904
6595.821289,0.844353
6596.821777,0.843142
6597.821777,0.843443
6598.822266,0.842618
6599.822266,0.840984
6600.822754,0.839875
6601.822754,0.837475
6602.823242,0.835220
6603.823242,0.833109
6604.823730,0.828418
6605.824219,0.823891
6606.824219,0.818361
6607.824707,0.811408
6608.824707,0.803155
6609.825195,0.795519
6610.825195,0.785605
6611.825684,0.776620
6612.825684,0.764510
6613.826172,0.750330
6614.826172,0.735751
6615.826660,0.720484
6616.826660,0.701430
6617.827148,0.681476
6618.827637,0.661861
6619.827637,0.641513
6620.828125,0.618958
6621.828125,0.597333
6622.828613,0.574541
6623.828613,0.550680
6624.829102,0.528359
6625.829102,0.503157
6626.829590,0.480850
6627.830078,0.457640
6628.830078,0.433009
6629.830566,0.407523
6630.830566,0.383374
6631.831055,0.361195
6632.831055,0.339043
6633.831543,0.317688
6634.832031,0.296964
6635.832031,0.277194
6636.832520,0.258094
6637.832520,0.240577
6638.833008,0.223146
6639.833008,0.207786
6640.833496,0.192483
6641.833496,0.177879
6642.833984,0.163334
6643.833984,0.149903
6644.834473,0.137494
6645.834473,0.126467
6646.834961,0.115779
6647.835449,0.105937
6648.835449,0.097183
6649.835938,0.088754
6650.835938,0.081113
6651.836426,0.074125
6652.836426,0.067914
6653.836914,0.061819
6654.836914,0.056472
6655.837402,0.051361
6656.837891,0.046521
6657.837891,0.042278
6658.838379,0.038386
6659.838379,0.034854
6660.838867,0.031614
6661.838867,0.028763
6662.839355,0.026183
6663.839844,0.023889
6664.839844,0.021723
6665.840332,0.019872
6666.840332,0.018083
6667.840820,0.016489
6668.840820,0.015004
6669.841309,0.013604
6670.841309,0.012346
6671.841797,0.011227
6672.841797,0.010287
6673.842285,0.009365
6674.842285,0.008539
6675.842773,0.007766
6676.843262,0.007070
6677.843262,0.006515
6678.843750,0.006018
6679.843750,0.005481
6680.844238,0.005024
6681.844238,0.004594
6682.844727,0.004208
6683.844727,0.003820
6684.845215,0.003523
6685.845703,0.003243
6686.845703,0.002986
6687.846191,0.002759
6688.846191,0.002526
6689.846680,0.002296
6690.846680,0.002140
6691.847168,0.001969
6692.847168,0.001841
6693.847656,0.001673
6694.847656,0.001571
6695.848145,0.001438
6696.848633,0.001313
6697.848633,0.001230
6698.849121,0.001156
6699.849121,0.001054
6700.849609,0.000978
6701.849609,0.000900
6702.850098,0.000820
6703.850098,0.000774
6704.850586,0.000724
6705.851074,0.000691
6706.851074,0.000629
6707.851562,0.000590
6708.851562,0.000549
6709.852051,0.000504
6710.852051,0.000461
6711.852539,0.000435
6712.852539,0.000414
6713.853027,0.000379
6714.853516,0.000361
6715.853516,0.000342
6716.854004,0.000315
6717.854004,0.000289
6718.854492,0.000268
6719.854492,0.000264
6720.854980,0.000241
6721.854980,0.000223
6722.855469,0.000215
6723.855469,0.000201
6724.855957,0.000184
6725.855957,0.000167
6726.856445,0.000162
6727.856934,0.000153
6728.856934,0.000146
6729.857422,0.000128
6730.857422,0.000132
6731.857910,0.000120
6732.857910,0.000115
6733.858398,0.000110
6734.858887,0.000103
6735.858887,0.000097
6736.859375,0.000085
6737.859375,0.000089
6738.859863,0.000084
6739.859863,0.000075
6740.860352,0.000073
6741.860352,0.000064
6742.860840,0.000070
6743.861328,0.000064
6744.861328,0.000062
6745.861816,0.000051
6761.865723,0.000039
6771.868652,0.000024
6781.871094,0.000016
6791.874023,0.000011
6801.876465,0.000008
6811.879395,0.000006
6821.882324,0.000004
6831.884766,0.000003
6841.887695,0.000003
6851.890137,0.000002
6861.892578,0.000002
6871.895508,0.000002
6881.898438,0.000002
6891.900879,0.000001
6901.903809,0.000001
6911.906250,0.000001
6921.909180,0.000001
6931.911621,0.000001
6941.914551,0.000001
6951.916992,0.000001
6961.919922,0.000001
6971.922363,0.000001
6981.925293,0.000001
6991.927734,0.000001
7001.930664,0.000001
7011.933105,0.000001
7021.936035,0.000001
7031.938477,0.000001
7041.941406,0.000001
7051.943848,0.000000
7061.946777,0.000000
7071.949219,0.000000
7081.952148,0.000000
7091.954590,0.000000
7101.957520,0.000000
7111.959961,0.000000
7121.962891,0.000000
7131.965332,0.000000
7141.968262,0.000000
7151.970703,0.000000
7161.973633,0.000000
7171.976074,0.000000
7181.979004,0.000000
7191.981934,0.000000
7201.984375,0.000000
7211.987305,0.000000
7221.989746,0.000000
7231.992676,0.000000
7241.995117,0.000000
7251.998047,0.000000
7262.000488,0.000000
7272.003418,0.000000
7282.005859,0.000000
7292.008789,0.000000
7302.011230,0.000000
7312.014160,0.000000
7322.016602,0.000000
7332.019531,0.000000
7342.021973,0.000000
7352.024902,0.000000
7362.027344,0.000000
7372.030273,0.000000
7382.032715,0.000000
7392.035645,0.000000
7402.038086,0.000000
7412.041016,0.000000
7422.043457,0.000000
7432.046387,0.000001
7442.049316,0.000002
7452.051758,0.000004
7462.054688,0.000006
7472.057129,0.000008
7482.060059,0.000008
7492.062500,0.000007
7502.065430,0.000005
7512.067871,0.000003
7522.070801,0.000001
7532.073242,0.000001
7542.076172,0.000001
7552.078613,0.000001
7562.081543,0.000002
7572.083984,0.000002
7582.086914,0.000003
7592.089844,0.000003
7602.092285,0.000004
7612.095215,0.000005
7622.097656,0.000005
7632.100586,0.000006
7642.103027,0.000006
7652.105957,0.000005
7662.108398,0.000004
7672.111328,0.000003
7682.113770,0.000002
7692.116699,0.000002
7702.119141,0.000001
7712.122070,0.000001
7722.124512,0.000001
7732.127441,0.000001
7742.129883,0.000001
7752.132812,0.000002
7762.135254,0.000002
7772.138184,0.000003
7782.140625,0.000003
7792.143555,0.000005
7802.145996,0.000006
7812.148926,0.000008
7822.151367,0.000009
7832.154297,0.000009
7842.157227,0.000007
7852.159668,0.000006
7862.162598,0.000004
7872.165039,0.000003
7882.167969,0.000002
7892.170410,0.000001
7902.173340,0.000001
7912.175781,0.000001
7922.178711,0.000001
7932.181152,0.000001
7942.184082,0.000002
7952.186523,0.000002
7962.189453,0.000003
7972.191895,0.000004
7982.194824,0.000005
7992.197754,0.000005
8002.200195,0.000005
8012.203125,0.000005
8022.205566,0.000004
8032.208496,0.000003
8042.210938,0.000002
8052.213867,0.000001
8062.216309,0.000001
8072.219238,0.000001
8082.221680,0.000001
8092.224609,0.000000
8102.227539,0.000001
8112.229980,0.000001
8122.232910,0.000001
8132.235352,0.000001
8142.238281,0.000002
8152.240723,0.000004
8162.243652,0.000007
8172.246094,0.000009
8182.249023,0.000009
8192.251953,0.000008
8202.253906,0.000007
8212.256836,0.000005
8222.259766,0.000003
8232.262695,0.000002
8242.264648,0.000002
8252.267578,0.000002
8262.270508,0.000001
8272.273438,0.000001
8282.276367,0.000001
8292.278320,0.000001
8302.281250,0.000002
8312.284180,0.000003
8322.287109,0.000005
8332.289062,0.000007
8342.291992,0.000008
8352.294922,0.000007
8362.297852,0.000005
8372.299805,0.000003
8382.302734,0.000001
8392.305664,0.000001
8402.308594,0.000001
8412.310547,0.000001
8422.313477,0.000001
8432.316406,0.000002
8442.319336,0.000004
8452.322266,0.000006
8462.324219,0.000008
8472.327148,0.000008
8482.330078,0.000008
8492.333008,0.000006
8502.334961,0.000000
8512.337891,0.000004
8522.340820,0.000006
8532.343750,0.000001
8542.346680,0.000001
8552.348633,0.000004
8562.351562,0.000009
8572.354492,0.000000
8582.357422,0.000000
8592.359375,0.000003
8602.362305,0.000000
8612.365234,0.000003
8622.368164,0.000000
8632.370117,0.000007
8642.373047,0.000000
8652.375977,0.000000
8662.378906,0.000002
8672.381836,0.000000
8682.383789,0.000002
8692.386719,0.000000
8702.389648,0.000003
8712.392578,0.000000
8722.394531,0.000001
8732.397461,0.000003
8742.400391,0.000000
8752.403320,0.000000
8762.405273,0.000004
8772.408203,0.000000
8782.411133,0.000000
8792.414062,0.000002
8802.416016,0.000000
8812.418945,0.000000
8822.421875,0.000001
8832.424805,0.000003
8842.427734,0.000001
8852.429688,0.000000
8862.432617,0.000002
8872.435547,0.000000
8882.438477,0.000002
8892.440430,0.000000
8902.443359,0.000000
8912.446289,0.000004
8922.449219,0.000000
8932.452148,0.000001
8942.454102,0.000000
8952.457031,0.000000
8962.459961,0.000002
8972.462891,0.000000
8982.464844,0.000001
8992.467773,0.000001
9002.470703,0.000000
9012.473633,0.000001
9022.476562,0.000002
9032.478516,0.000000
9042.481445,0.000000
9052.484375,0.000000
9062.487305,0.000002
9072.489258,0.000001
9082.492188,0.000000
9092.495117,0.000000
9102.498047,0.000003
9112.500000,0.000000
9122.502930,0.000000
9132.505859,0.000001
9142.508789,0.000000
9152.510742,0.000000
9162.513672,0.000000
9172.516602,0.000000
9182.519531,0.000000
9192.522461,0.000000
9202.524414,0.000001
9212.527344,0.000000
9222.530273,0.000000
9232.533203,0.000001
9242.535156,0.000002
9252.538086,0.000000
9262.541016,0.000000
9272.543945,0.000001
9282.546875,0.000000
9292.548828,0.000001
9302.551758,0.000000
9312.554688,0.000000
9322.557617,0.000002
9332.559570,0.000001
9342.562500,0.000001
9352.565430,0.000000
9362.568359,0.000000
9372.570312,0.000000
9382.573242,0.000000
9392.576172,0.000000
9402.579102,0.000000
9412.582031,0.000000
9422.583984,0.000000
9432.586914,0.000000
9442.589844,0.000001
9452.592773,0.000001
9462.594727,0.000001
9472.597656,0.000001
9482.600586,0.000000
9492.603516,0.000000
9502.606445,0.000000
9512.608398,0.000000
9522.611328,0.000000
9532.614258,0.000000
9542.617188,0.000000
9552.619141,0.000000
9562.622070,0.000000
9572.625000,0.000000
9582.627930,0.000000
9592.630859,0.000000
9602.632812,0.000000
9612.635742,0.000000
9622.638672,0.000000
9632.641602,0.000000
9642.643555,0.000000
9652.646484,0.000001
9662.649414,0.000000
9672.652344,0.000000
9682.655273,0.000000
9692.657227,0.000000
9702.660156,0.000000
9712.663086,0.000000
9722.666016,0.000000
9732.667969,0.000001
9742.670898,0.000000
9752.673828,0.000000
9762.676758,0.000000
9772.679688,0.000000
9782.681641,0.000000
9792.684570,0.000000
9802.687500,0.000000
9812.690430,0.000000
9822.692383,0.000000
9832.695312,0.000000
9842.698242,0.000000
9852.701172,0.000000
9862.703125,0.000000
9872.706055,0.000001
9882.708984,0.000000
9892.711914,0.000000
9902.714844,0.000000
9912.716797,0.000000
9922.719727,0.000000
9932.722656,0.000000
9942.725586,0.000000
9952.727539,0.000000
9962.730469,0.000000
9972.733398,0.000000
9982.736328,0.000000
9992.739258,0.000000
10002.741211,0.000000
10012.744141,0.000000
10022.747070,0.000000
10032.750000,0.000000
10042.751953,0.000000
10052.754883,0.000000
10062.757812,0.000000
10072.759766,0.000000
10082.762695,0.000000
10092.765625,0.000000
10102.768555,0.000000
10112.771484,0.000000
10122.774414,0.000000
10132.777344,0.000000
10142.779297,0.000000
10152.782227,0.000000
10162.785156,0.000000
10172.788086,0.000000
10182.790039,0.000000
10192.792969,0.000000
10202.795898,0.000000
10212.797852,0.000000
10222.800781,0.000000
10232.803711,0.000000
10242.806641,0.000000
10252.808594,0.000000
10262.811523,0.000000
10272.815430,0.000000
10282.817383,0.000000
10292.820312,0.000000
10302.823242,0.000000
10312.826172,0.000000
10322.828125,0.000000
10332.831055,0.000000
10342.833984,0.000000
10352.835938,0.000000
10362.838867,0.000000
10372.841797,0.000000
10382.843750,0.000000
10392.846680,0.000000
10402.849609,0.000000
10412.852539,0.000000
10422.855469,0.000000
10432.858398,0.000000
10442.861328,0.000000
10452.863281,0.000000
10462.866211,0.000000
10472.869141,0.000000
10482.872070,0.000000
10492.874023,0.000000
10502.876953,0.000000
10512.879883,0.000000
10522.881836,0.000000
10532.884766,0.000000
10542.887695,0.000000
10552.890625,0.000000
10562.892578,0.000000
10572.896484,0.000000
10582.899414,0.000000
10592.901367,0.000000
10602.904297,0.000000
10612.907227,0.000000
10622.910156,0.000000
10632.912109,0.000000
10642.915039,0.000000
10652.917969,0.000000
10662.919922,0.000000
10672.922852,0.000000
10682.925781,0.000000
10692.928711,0.000000
10702.930664,0.000000
10712.933594,0.000000
10722.936523,0.000000
10732.939453,0.000000
10742.942383,0.000000
10752.945312,0.000000
10762.948242,0.000000
10772.950195,0.000000
10782.953125,0.000000
10792.956055,0.000000
10802.958008,0.000000
10812.960938,0.000000
10822.963867,0.000000
10832.966797,0.000000
10842.968750,0.000000
10852.971680,0.000000
10862.974609,0.000000
10872.976562,0.000000
10882.980469,0.000000
10892.983398,0.000000
10902.986328,0.000000
10912.988281,0.000000
10922.991211,0.000000
10932.994141,0.000000
10942.996094,0.000000
10952.999023,0.000000
10963.001953,0.000000
10973.004883,0.000000
10983.006836,0.000000
10993.009766,0.000000
11003.012695,0.000000
11004.012695,0.000000
11005.012695,0.000000
