# WAVELENGTH_UNIT	AA
# COMPNAME       	HST_WFC3_F475X
# NAME           	HST_WFC3_F475X
# DETECTOR       	photon
#
## WAVELENGTH	None	AA
## THROUGHPUT	None	filter throughput definition
#
WAVELENGTH,THROUGHPUT
1938.638306,0.000000
1939.638306,0.000000
1940.638306,0.000002
1950.639893,0.000002
1960.641357,0.000002
1970.643066,0.000002
1980.644653,0.000001
1990.646362,0.000001
2000.648193,0.000001
2010.649902,0.000001
2020.651733,0.000001
2030.653442,0.000001
2040.655273,0.000001
2050.656982,0.000001
2060.658936,0.000001
2070.660889,0.000001
2080.662842,0.000001
2090.664795,0.000001
2100.666748,0.000001
2110.668701,0.000000
2120.670654,0.000000
2130.672607,0.000000
2140.674561,0.000000
2150.676514,0.000000
2160.678711,0.000000
2170.680664,0.000000
2180.682861,0.000000
2190.684814,0.000000
2200.687012,0.000000
2210.688965,0.000000
2220.691162,0.000000
2230.693115,0.000000
2240.695312,0.000000
2250.697510,0.000000
2260.699707,0.000000
2270.701904,0.000000
2280.704102,0.000000
2290.706299,0.000000
2300.708496,0.000000
2310.710449,0.000000
2320.712891,0.000000
2330.715088,0.000000
2340.717285,0.000000
2350.719482,0.000000
2360.721680,0.000000
2370.723877,0.000000
2380.726074,0.000000
2390.728516,0.000000
2400.730713,0.000000
2410.732910,0.000000
2420.735107,0.000000
2430.737549,0.000000
2440.739746,0.000000
2450.742188,0.000000
2460.744385,0.000000
2470.746582,0.000000
2480.749023,0.000000
2490.751221,0.000000
2500.753662,0.000000
2510.756104,0.000000
2520.758301,0.000000
2530.760498,0.000000
2540.762939,0.000001
2550.765381,0.000001
2560.767578,0.000001
2570.770020,0.000001
2580.772461,0.000001
2590.774902,0.000001
2600.777100,0.000001
2610.779541,0.000001
2620.781982,0.000001
2630.784180,0.000002
2640.786621,0.000002
2650.789062,0.000002
2660.791504,0.000002
2670.793701,0.000003
2680.796143,0.000003
2690.798584,0.000003
2700.801025,0.000003
2710.803467,0.000004
2720.805908,0.000004
2730.808350,0.000005
2740.810791,0.000005
2750.812988,0.000006
2760.815674,0.000006
2770.818115,0.000006
2780.820312,0.000007
2790.822998,0.000007
2800.825195,0.000008
2810.827881,0.000008
2820.830078,0.000009
2830.832520,0.000009
2840.835205,0.000010
2850.837646,0.000010
2860.840088,0.000010
2870.842529,0.000010
2880.844971,0.000010
2890.847412,0.000010
2900.849854,0.000010
2910.852295,0.000009
2920.854736,0.000009
2930.857422,0.000008
2940.859863,0.000008
2950.862305,0.000007
2960.864746,0.000007
2970.867188,0.000006
2980.869629,0.000006
2990.872314,0.000005
3000.874756,0.000005
3010.877197,0.000005
3020.879639,0.000004
3030.882080,0.000004
3040.884766,0.000004
3050.887207,0.000003
3060.889648,0.000003
3070.892090,0.000003
3080.894775,0.000003
3090.897217,0.000003
3100.899658,0.000002
3110.902100,0.000002
3120.904785,0.000002
3130.907227,0.000002
3140.909912,0.000002
3150.912354,0.000002
3160.914795,0.000002
3170.917236,0.000002
3180.919922,0.000002
3190.922363,0.000002
3200.924805,0.000002
3210.927490,0.000002
3220.929932,0.000002
3230.932617,0.000002
3240.935059,0.000002
3250.937500,0.000002
3260.940186,0.000002
3270.942627,0.000002
3280.945312,0.000002
3290.947754,0.000002
3300.950195,0.000002
3310.952881,0.000002
3320.955322,0.000002
3330.958008,0.000002
3340.960449,0.000002
3350.962891,0.000002
3360.965576,0.000002
3370.968018,0.000002
3380.970703,0.000002
3390.973145,0.000002
3400.975830,0.000003
3410.978271,0.000003
3420.980957,0.000003
3430.983398,0.000004
3440.986084,0.000004
3450.988525,0.000004
3460.991211,0.000005
3470.993652,0.000005
3480.996338,0.000007
3490.998779,0.000008
3501.001465,0.000009
3511.003906,0.000011
3521.006592,0.000013
3531.009033,0.000016
3541.011719,0.000020
3551.014404,0.000025
3561.016846,0.000032
3571.019287,0.000041
3581.021973,0.000053
3591.024658,0.000070
3601.027100,0.000094
3611.029785,0.000126
3621.032227,0.000171
3631.034912,0.000236
3641.037598,0.000328
3651.040039,0.000468
3671.045166,0.000695
3681.047852,0.000998
3691.050293,0.001525
3701.052979,0.002341
3711.055664,0.003569
3721.058105,0.005668
3731.060791,0.009264
3741.063232,0.015351
3751.065918,0.025993
3761.068604,0.045945
3771.071045,0.083024
3781.073730,0.147931
3791.076416,0.253941
3801.078857,0.402808
3811.081543,0.566372
3821.083984,0.696830
3831.086670,0.769956
3841.089355,0.798207
3851.091797,0.804321
3861.094482,0.804341
3871.097168,0.805741
3881.099609,0.809295
3891.102295,0.812855
3901.104980,0.814629
3911.107422,0.814981
3921.110107,0.814182
3931.112793,0.812769
3941.115479,0.810985
3951.117920,0.811175
3961.120605,0.812363
3971.123291,0.815909
3981.125732,0.821574
3991.128418,0.827424
4001.131104,0.834072
4011.133545,0.840390
4021.136230,0.845600
4031.138916,0.849826
4041.141602,0.852975
4051.144043,0.853625
4061.146729,0.853310
4071.149414,0.852146
4081.151855,0.850018
4091.154541,0.848792
4101.157227,0.846904
4111.159668,0.844881
4121.162598,0.845266
4131.165039,0.845206
4141.167480,0.847675
4151.170410,0.850314
4161.172852,0.853823
4171.175293,0.857565
4181.178223,0.862106
4191.180664,0.866629
4201.183594,0.871467
4211.186035,0.873719
4221.188477,0.877656
4231.191406,0.878797
4241.193848,0.880461
4251.196289,0.880716
4261.199219,0.880139
4271.201660,0.880001
4281.204590,0.878240
4291.207031,0.877536
4301.209473,0.875973
4311.212402,0.875278
4321.214844,0.875164
4331.217773,0.874608
4341.220215,0.875161
4351.222656,0.876473
4361.225586,0.878198
4371.228027,0.880406
4381.230469,0.883067
4391.233398,0.885982
4401.235840,0.888735
4411.238770,0.892333
4421.241211,0.895566
4431.244141,0.898822
4441.246582,0.900429
4451.249023,0.902230
4461.251953,0.903978
4471.254395,0.903607
4481.257324,0.904480
4491.259766,0.903119
4501.262207,0.902332
4511.265137,0.901203
4521.267578,0.898825
4531.270508,0.897221
4541.272949,0.894836
4551.275391,0.892958
4561.278320,0.891635
4571.280762,0.889603
4581.283691,0.888896
4591.286133,0.888110
4601.288574,0.888288
4611.291504,0.889191
4621.293945,0.890208
4631.296875,0.892301
4641.299316,0.894456
4651.301758,0.898040
4661.304688,0.900252
4671.307129,0.904624
4681.310059,0.908509
4691.312500,0.911986
4701.315430,0.916445
4711.317871,0.919622
4721.320312,0.923633
4731.323242,0.926715
4741.325684,0.929733
4751.328613,0.932474
4761.331055,0.933834
4771.333984,0.935836
4781.336426,0.935351
4791.338867,0.936515
4801.341797,0.935871
4811.344238,0.934766
4821.347168,0.933663
4831.349609,0.931219
4841.352539,0.929253
4851.354980,0.926294
4861.357422,0.924587
4871.360352,0.922977
4881.362793,0.918931
4891.365723,0.917414
4901.368164,0.914614
4911.371094,0.913382
4921.373535,0.912448
4931.375977,0.910580
4941.378906,0.910179
4951.381348,0.909275
4961.384277,0.910423
4971.386719,0.909949
4981.389648,0.910644
4991.392090,0.912182
5001.395020,0.913145
5011.397461,0.916290
5021.399902,0.918018
5031.402832,0.920876
5041.405273,0.922929
5051.408203,0.925298
5061.410645,0.928674
5071.413574,0.929876
5081.416016,0.933197
5091.418945,0.935593
5101.421387,0.937812
5111.424316,0.939704
5121.426758,0.940938
5131.429199,0.943126
5141.432129,0.943039
5151.434570,0.944182
5161.437500,0.943227
5171.439941,0.943878
5181.442871,0.943314
5191.445312,0.941271
5201.448242,0.941916
5211.450684,0.938861
5221.453613,0.936297
5231.456055,0.934850
5241.458496,0.932651
5251.461426,0.930581
5261.463867,0.927082
5271.466797,0.925035
5281.469238,0.921842
5291.472168,0.919421
5301.474609,0.916352
5311.477539,0.913565
5321.479980,0.911134
5331.482910,0.907548
5341.485352,0.905640
5351.487793,0.902697
5361.490723,0.900558
5371.493164,0.898394
5381.496094,0.894870
5391.498535,0.893325
5401.501465,0.890552
5411.503906,0.888608
5421.506836,0.886618
5431.509277,0.883066
5441.512207,0.881413
5451.514648,0.878256
5461.517578,0.875998
5471.520020,0.873540
5481.522461,0.870353
5491.525391,0.867464
5501.527832,0.863053
5511.530762,0.859728
5521.533203,0.856698
5531.536133,0.852371
5541.538574,0.848312
5551.541504,0.842867
5561.543945,0.838839
5571.546875,0.832722
5581.549316,0.828086
5591.552246,0.822236
5601.554688,0.815997
5611.557617,0.810052
5621.560059,0.802789
5631.562988,0.797008
5641.565430,0.789531
5651.567871,0.782195
5661.570801,0.774805
5671.573730,0.766574
5681.576172,0.759484
5691.578613,0.751886
5701.581543,0.743393
5711.583984,0.735272
5721.586914,0.727043
5731.589355,0.718044
5741.592285,0.710810
5751.594727,0.701777
5761.597656,0.693543
5771.600098,0.684208
5781.603027,0.676283
5791.605469,0.667551
5801.608398,0.659075
5811.610840,0.650175
5821.613770,0.641082
5831.616211,0.633048
5841.619141,0.623741
5851.621582,0.614929
5861.624512,0.606355
5871.626953,0.597395
5881.629883,0.588738
5891.632324,0.579150
5901.634766,0.570686
5911.637695,0.561270
5921.640625,0.551854
5931.643066,0.542844
5941.645508,0.533408
5951.648438,0.524227
5961.650879,0.514234
5971.653809,0.505103
5981.656738,0.495388
5991.659180,0.485761
6001.661621,0.475894
6011.664551,0.465959
6021.666992,0.456097
6031.669922,0.446230
6041.672363,0.436307
6051.675293,0.426175
6061.677734,0.416728
6071.680664,0.406585
6081.683105,0.396091
6091.686035,0.386150
6101.688477,0.376045
6111.691406,0.366344
6121.693848,0.356370
6131.696777,0.346497
6141.699219,0.337027
6151.702148,0.327510
6161.704590,0.317699
6171.707520,0.308388
6181.709961,0.299477
6191.712891,0.290431
6201.715332,0.281398
6211.718262,0.272595
6221.720703,0.264138
6231.723633,0.255837
6241.726074,0.247500
6251.729004,0.239349
6261.731445,0.231664
6271.734375,0.224102
6281.736816,0.216432
6291.739746,0.209401
6301.742188,0.202279
6311.745117,0.195554
6321.747559,0.188717
6331.750488,0.182312
6341.752930,0.176107
6351.755859,0.169771
6361.758301,0.163819
6371.761230,0.158018
6381.763672,0.152513
6391.766602,0.146975
6401.769043,0.141798
6411.771973,0.136565
6421.774414,0.131679
6431.777344,0.126759
6441.779785,0.121950
6451.782715,0.117568
6461.785156,0.113144
6471.788086,0.108838
6481.790527,0.104609
6491.793457,0.100587
6501.795898,0.096625
6511.798828,0.092813
6521.801270,0.089082
6531.804199,0.085466
6541.806641,0.082032
6551.809570,0.078604
6561.812012,0.075264
6571.814941,0.072093
6581.817383,0.069093
6591.820312,0.066032
6601.822754,0.063097
6611.825684,0.060346
6621.828125,0.057670
6631.831055,0.054876
6641.833496,0.052360
6651.836426,0.049861
6661.838867,0.047518
6671.841797,0.045197
6681.844238,0.042990
6691.847168,0.040854
6701.849609,0.038798
6711.852539,0.036684
6721.854980,0.034810
6731.857910,0.033067
6741.860352,0.031236
6751.863281,0.029551
6761.865723,0.027928
6771.868652,0.026382
6781.871094,0.024868
6791.874023,0.023435
6801.876465,0.022080
6811.879395,0.020845
6821.882324,0.019602
6831.884766,0.018471
6841.887695,0.017339
6851.890137,0.016303
6861.892578,0.015331
6871.895508,0.014391
6881.898438,0.013491
6891.900879,0.012660
6901.903809,0.011880
6911.906250,0.011104
6921.909180,0.010431
6931.911621,0.009768
6941.914551,0.009168
6951.916992,0.008540
6961.919922,0.008027
6971.922363,0.007490
6981.925293,0.007007
6991.927734,0.006549
7001.930664,0.006183
7011.933105,0.005758
7021.936035,0.005383
7031.938477,0.005028
7041.941406,0.004720
7051.943848,0.004389
7061.946777,0.004130
7071.949219,0.003830
7081.952148,0.003578
7091.954590,0.003368
7101.957520,0.003130
7111.959961,0.002958
7121.962891,0.002714
7131.965332,0.002601
7141.968262,0.002406
7151.970703,0.002261
7161.973633,0.002116
7171.976074,0.001995
7181.979004,0.001837
7191.981934,0.001743
7201.984375,0.001617
7211.987305,0.001522
7221.989746,0.001420
7231.992676,0.001313
7241.995117,0.001239
7251.998047,0.001169
7262.000488,0.001087
7272.003418,0.001020
7282.005859,0.000953
7292.008789,0.000898
7302.011230,0.000819
7312.014160,0.000801
7322.016602,0.000776
7332.019531,0.000722
7342.021973,0.000679
7352.024902,0.000635
7362.027344,0.000601
7372.030273,0.000570
7382.032715,0.000533
7392.035645,0.000496
7402.038086,0.000469
7412.041016,0.000440
7422.043457,0.000414
7432.046387,0.000390
7442.049316,0.000365
7452.051758,0.000346
7462.054688,0.000321
7472.057129,0.000302
7482.060059,0.000287
7492.062500,0.000269
7502.065430,0.000250
7512.067871,0.000236
7522.070801,0.000221
7532.073242,0.000207
7542.076172,0.000194
7552.078613,0.000182
7562.081543,0.000170
7572.083984,0.000160
7582.086914,0.000149
7592.089844,0.000139
7602.092285,0.000132
7612.095215,0.000124
7622.097656,0.000115
7632.100586,0.000108
7642.103027,0.000102
7652.105957,0.000096
7662.108398,0.000090
7672.111328,0.000083
7682.113770,0.000078
7692.116699,0.000074
7702.119141,0.000069
7712.122070,0.000064
7722.124512,0.000060
7732.127441,0.000056
7742.129883,0.000052
7752.132812,0.000049
7762.135254,0.000046
7772.138184,0.000043
7782.140625,0.000040
7792.143555,0.000038
7802.145996,0.000035
7812.148926,0.000033
7822.151367,0.000031
7832.154297,0.000029
7842.157227,0.000027
7852.159668,0.000026
7862.162598,0.000024
7872.165039,0.000022
7882.167969,0.000021
7892.170410,0.000020
7902.173340,0.000018
7912.175781,0.000017
7922.178711,0.000016
7932.181152,0.000015
7942.184082,0.000014
7952.186523,0.000014
7962.189453,0.000013
7972.191895,0.000012
7982.194824,0.000011
7992.197754,0.000011
8002.200195,0.000010
8012.203125,0.000009
8022.205566,0.000009
8032.208496,0.000008
8042.210938,0.000008
8052.213867,0.000007
8062.216309,0.000007
8072.219238,0.000007
8082.221680,0.000006
8092.224609,0.000006
8102.227539,0.000006
8112.229980,0.000005
8122.232910,0.000005
8132.235352,0.000005
8142.238281,0.000005
8152.240723,0.000004
8162.243652,0.000004
8172.246094,0.000004
8182.249023,0.000004
8192.251953,0.000004
8202.253906,0.000003
8212.256836,0.000003
8222.259766,0.000003
8232.262695,0.000003
8242.264648,0.000003
8252.267578,0.000003
8262.270508,0.000003
8272.273438,0.000003
8282.276367,0.000002
8292.278320,0.000002
8302.281250,0.000002
8312.284180,0.000002
8322.287109,0.000002
8332.289062,0.000002
8342.291992,0.000002
8352.294922,0.000002
8362.297852,0.000002
8372.299805,0.000002
8382.302734,0.000002
8392.305664,0.000002
8402.308594,0.000002
8412.310547,0.000002
8422.313477,0.000002
8432.316406,0.000002
8442.319336,0.000002
8452.322266,0.000001
8462.324219,0.000001
8472.327148,0.000001
8482.330078,0.000001
8492.333008,0.000001
8502.334961,0.000011
8512.337891,0.000003
8522.340820,0.000008
8532.343750,0.000001
8542.346680,0.000002
8552.348633,0.000010
8562.351562,0.000010
8572.354492,0.000008
8582.357422,0.000000
8592.359375,0.000012
8602.362305,0.000002
8612.365234,0.000010
8622.368164,0.000005
8632.370117,0.000008
8642.373047,0.000011
8652.375977,0.000004
8662.378906,0.000003
8672.381836,0.000006
8682.383789,0.000005
8692.386719,0.000007
8702.389648,0.000001
8712.392578,0.000005
8722.394531,0.000011
8732.397461,0.000005
8742.400391,0.000002
8752.403320,0.000005
8762.405273,0.000008
8772.408203,0.000005
8782.411133,0.000001
8792.414062,0.000009
8802.416016,0.000005
8812.418945,0.000007
8822.421875,0.000003
8832.424805,0.000006
8842.427734,0.000002
8852.429688,0.000004
8862.432617,0.000003
8872.435547,0.000006
8882.438477,0.000001
8892.440430,0.000004
8902.443359,0.000004
8912.446289,0.000000
8922.449219,0.000003
8932.452148,0.000006
8942.454102,0.000002
8952.457031,0.000005
8962.459961,0.000004
8972.462891,0.000004
8982.464844,0.000006
8992.467773,0.000005
9002.470703,0.000005
9012.473633,0.000003
9022.476562,0.000004
9032.478516,0.000003
9042.481445,0.000002
9052.484375,0.000006
9062.487305,0.000003
9072.489258,0.000002
9082.492188,0.000003
9092.495117,0.000003
9102.498047,0.000002
9112.500000,0.000002
9122.502930,0.000002
9132.505859,0.000004
9142.508789,0.000001
9152.510742,0.000003
9162.513672,0.000003
9172.516602,0.000001
9182.519531,0.000002
9192.522461,0.000002
9202.524414,0.000004
9212.527344,0.000002
9222.530273,0.000003
9232.533203,0.000002
9242.535156,0.000003
9252.538086,0.000003
9262.541016,0.000001
9272.543945,0.000004
9282.546875,0.000003
9292.548828,0.000002
9302.551758,0.000001
9312.554688,0.000003
9322.557617,0.000002
9332.559570,0.000002
9342.562500,0.000001
9352.565430,0.000002
9362.568359,0.000002
9372.570312,0.000001
9382.573242,0.000003
9392.576172,0.000002
9402.579102,0.000002
9412.582031,0.000002
9422.583984,0.000002
9432.586914,0.000002
9442.589844,0.000002
9452.592773,0.000002
9462.594727,0.000002
9472.597656,0.000002
9482.600586,0.000002
9492.603516,0.000003
9502.606445,0.000002
9512.608398,0.000002
9522.611328,0.000003
9532.614258,0.000001
9542.617188,0.000002
9552.619141,0.000002
9562.622070,0.000002
9572.625000,0.000002
9582.627930,0.000002
9592.630859,0.000003
9602.632812,0.000002
9612.635742,0.000003
9622.638672,0.000002
9632.641602,0.000002
9642.643555,0.000003
9652.646484,0.000003
9662.649414,0.000003
9672.652344,0.000002
9682.655273,0.000003
9692.657227,0.000003
9702.660156,0.000002
9712.663086,0.000003
9722.666016,0.000003
9732.667969,0.000003
9742.670898,0.000002
9752.673828,0.000002
9762.676758,0.000003
9772.679688,0.000003
9782.681641,0.000003
9792.684570,0.000003
9802.687500,0.000003
9812.690430,0.000002
9822.692383,0.000003
9832.695312,0.000003
9842.698242,0.000003
9852.701172,0.000003
9862.703125,0.000003
9872.706055,0.000003
9882.708984,0.000003
9892.711914,0.000004
9902.714844,0.000004
9912.716797,0.000004
9922.719727,0.000004
9932.722656,0.000004
9942.725586,0.000003
9952.727539,0.000004
9962.730469,0.000004
9972.733398,0.000004
9982.736328,0.000004
9992.739258,0.000004
10002.741211,0.000004
10012.744141,0.000005
10022.747070,0.000004
10032.750000,0.000005
10042.751953,0.000005
10052.754883,0.000005
10062.757812,0.000005
10072.759766,0.000005
10082.762695,0.000006
10092.765625,0.000006
10102.768555,0.000006
10112.771484,0.000005
10122.774414,0.000006
10132.777344,0.000005
10142.779297,0.000006
10152.782227,0.000007
10162.785156,0.000007
10172.788086,0.000006
10182.790039,0.000007
10192.792969,0.000007
10202.795898,0.000007
10212.797852,0.000007
10222.800781,0.000008
10232.803711,0.000008
10242.806641,0.000008
10252.808594,0.000008
10262.811523,0.000009
10272.815430,0.000009
10282.817383,0.000009
10292.820312,0.000009
10302.823242,0.000010
10312.826172,0.000011
10322.828125,0.000010
10332.831055,0.000011
10342.833984,0.000011
10352.835938,0.000011
10362.838867,0.000011
10372.841797,0.000012
10382.843750,0.000012
10392.846680,0.000013
10402.849609,0.000013
10412.852539,0.000013
10422.855469,0.000013
10432.858398,0.000015
10442.861328,0.000015
10452.863281,0.000014
10462.866211,0.000016
10472.869141,0.000016
10482.872070,0.000017
10492.874023,0.000017
10502.876953,0.000018
10512.879883,0.000018
10522.881836,0.000018
10532.884766,0.000019
10542.887695,0.000020
10552.890625,0.000020
10562.892578,0.000020
10572.896484,0.000021
10582.899414,0.000021
10592.901367,0.000023
10602.904297,0.000023
10612.907227,0.000024
10622.910156,0.000024
10632.912109,0.000025
10642.915039,0.000026
10652.917969,0.000027
10662.919922,0.000027
10672.922852,0.000028
10682.925781,0.000029
10692.928711,0.000030
10702.930664,0.000030
10712.933594,0.000031
10722.936523,0.000032
10732.939453,0.000033
10742.942383,0.000034
10752.945312,0.000034
10762.948242,0.000036
10772.950195,0.000036
10782.953125,0.000038
10792.956055,0.000038
10802.958008,0.000039
10812.960938,0.000040
10822.963867,0.000042
10832.966797,0.000042
10842.968750,0.000044
10852.971680,0.000044
10862.974609,0.000046
10872.976562,0.000047
10882.980469,0.000048
10892.983398,0.000049
10902.986328,0.000050
10912.988281,0.000052
10922.991211,0.000053
10932.994141,0.000054
10942.996094,0.000055
10952.999023,0.000056
10963.001953,0.000058
10973.004883,0.000059
10983.006836,0.000060
10993.009766,0.000063
11003.012695,0.000063
11004.012695,0.000000
11005.012695,0.000000
