# WAVELENGTH_UNIT	um
# COMPNAME       	WISE_RSR_W3
# NAME           	WISE_RSR_W3
# DETECTOR       	photon
#
## WAVELENGTH	None	um
## THROUGHPUT	None	filter throughput definition
#
WAVELENGTH,THROUGHPUT
2.530000,0.000000
2.540000,0.000000
2.550000,0.000000
2.560000,0.000000
2.570000,0.000000
2.580000,0.000000
2.590000,0.000000
2.600000,0.000000
2.610000,0.000000
2.620000,0.000000
2.630000,0.000000
2.640000,0.000000
2.650000,0.000000
2.660000,0.000000
2.670000,0.000000
2.680000,0.000000
2.690000,0.000000
2.700000,0.000000
2.710000,0.000000
2.720000,0.000000
2.730000,0.000000
2.740000,0.000000
2.750000,0.000000
2.760000,0.000000
2.770000,0.000000
2.780000,0.000000
2.790000,0.000000
2.800000,0.000000
2.810000,0.000000
2.820000,0.000000
2.830000,0.000000
2.840000,0.000000
2.850000,0.000000
2.860000,0.000000
2.870000,0.000000
2.880000,0.000000
2.890000,0.000000
2.900000,0.000000
2.910000,0.000000
2.920000,0.000000
2.930000,0.000000
2.940000,0.000000
2.950000,0.000000
2.960000,0.000000
2.970000,0.000000
2.980000,0.000000
2.990000,0.000000
3.000000,0.000000
3.010000,0.000000
3.020000,0.000000
3.030000,0.000000
3.040000,0.000000
3.050000,0.000000
3.060000,0.000000
3.070000,0.000000
3.080000,0.000000
3.090000,0.000000
3.100000,0.000000
3.110000,0.000000
3.120000,0.000000
3.130000,0.000000
3.140000,0.000000
3.150000,0.000000
3.160000,0.000000
3.170000,0.000000
3.180000,0.000000
3.190000,0.000000
3.200000,0.000000
3.210000,0.000000
3.220000,0.000000
3.230000,0.000000
3.240000,0.000000
3.250000,0.000000
3.260000,0.000000
3.270000,0.000000
3.280000,0.000000
3.290000,0.000000
3.300000,0.000000
3.310000,0.000000
3.320000,0.000000
3.330000,0.000000
3.340000,0.000000
3.350000,0.000000
3.360000,0.000000
3.370000,0.000000
3.380000,0.000000
3.390000,0.000000
3.400000,0.000000
3.410000,0.000000
3.420000,0.000000
3.430000,0.000000
3.440000,0.000000
3.450000,0.000000
3.460000,0.000000
3.470000,0.000000
3.480000,0.000000
3.490000,0.000000
3.500000,0.000000
3.510000,0.000000
3.520000,0.000000
3.530000,0.000000
3.540000,0.000000
3.550000,0.000000
3.560000,0.000000
3.570000,0.000000
3.580000,0.000000
3.590000,0.000000
3.600000,0.000000
3.610000,0.000000
3.620000,0.000000
3.630000,0.000000
3.640000,0.000000
3.650000,0.000000
3.660000,0.000000
3.670000,0.000000
3.680000,0.000000
3.690000,0.000000
3.700000,0.000000
3.710000,0.000000
3.720000,0.000000
3.730000,0.000000
3.740000,0.000000
3.750000,0.000000
3.760000,0.000000
3.770000,0.000000
3.780000,0.000000
3.790000,0.000000
3.800000,0.000000
3.810000,0.000000
3.820000,0.000000
3.830000,0.000000
3.840000,0.000000
3.850000,0.000000
3.860000,0.000000
3.870000,0.000000
3.880000,0.000000
3.890000,0.000000
3.900000,0.000000
3.910000,0.000000
3.920000,0.000000
3.930000,0.000000
3.940000,0.000000
3.950000,0.000000
3.960000,0.000000
3.970000,0.000000
3.980000,0.000000
3.990000,0.000000
4.000000,0.000000
4.010000,0.000000
4.020000,0.000000
4.030000,0.000000
4.040000,0.000000
4.050000,0.000000
4.060000,0.000000
4.070000,0.000000
4.080000,0.000000
4.090000,0.000000
4.100000,0.000000
4.110000,0.000000
4.120000,0.000000
4.130000,0.000000
4.140000,0.000000
4.150000,0.000000
4.160000,0.000000
4.170000,0.000000
4.180000,0.000000
4.190000,0.000000
4.200000,0.000000
4.210000,0.000000
4.220000,0.000000
4.230000,0.000000
4.240000,0.000000
4.250000,0.000000
4.260000,0.000000
4.270000,0.000000
4.280000,0.000000
4.290000,0.000000
4.300000,0.000000
4.310000,0.000000
4.320000,0.000000
4.330000,0.000000
4.340000,0.000000
4.350000,0.000000
4.360000,0.000000
4.370000,0.000000
4.380000,0.000000
4.390000,0.000000
4.400000,0.000000
4.410000,0.000000
4.420000,0.000000
4.430000,0.000000
4.440000,0.000000
4.450000,0.000000
4.460000,0.000000
4.470000,0.000000
4.480000,0.000000
4.490000,0.000000
4.500000,0.000000
4.510000,0.000000
4.520000,0.000000
4.530000,0.000000
4.540000,0.000000
4.550000,0.000000
4.560000,0.000000
4.570000,0.000000
4.580000,0.000000
4.590000,0.000000
4.600000,0.000000
4.610000,0.000000
4.620000,0.000000
4.630000,0.000000
4.640000,0.000000
4.650000,0.000000
4.660000,0.000000
4.670000,0.000000
4.680000,0.000000
4.690000,0.000000
4.700000,0.000000
4.710000,0.000000
4.720000,0.000000
4.730000,0.000000
4.740000,0.000000
4.750000,0.000000
4.760000,0.000000
4.770000,0.000000
4.780000,0.000000
4.790000,0.000000
4.800000,0.000000
4.810000,0.000000
4.820000,0.000000
4.830000,0.000000
4.840000,0.000000
4.850000,0.000000
4.860000,0.000000
4.870000,0.000000
4.880000,0.000000
4.890000,0.000000
4.900000,0.000000
4.910000,0.000000
4.920000,0.000000
4.930000,0.000000
4.940000,0.000000
4.950000,0.000000
4.960000,0.000000
4.970000,0.000000
4.980000,0.000000
4.990000,0.000000
5.000000,0.000000
5.010000,0.000000
5.020000,0.000000
5.030000,0.000000
5.040000,0.000000
5.050000,0.000000
5.060000,0.000000
5.070000,0.000000
5.080000,0.000000
5.090000,0.000000
5.100000,0.000000
5.110000,0.000000
5.120000,0.000000
5.130000,0.000000
5.140000,0.000000
5.150000,0.000000
5.160000,0.000000
5.170000,0.000000
5.180000,0.000000
5.190000,0.000000
5.200000,0.000000
5.210000,0.000000
5.220000,0.000000
5.230000,0.000000
5.240000,0.000000
5.250000,0.000000
5.260000,0.000000
5.270000,0.000000
5.280000,0.000000
5.290000,0.000000
5.300000,0.000000
5.310000,0.000000
5.320000,0.000000
5.330000,0.000000
5.340000,0.000000
5.350000,0.000000
5.360000,0.000000
5.370000,0.000000
5.380000,0.000000
5.390000,0.000000
5.400000,0.000000
5.410000,0.000000
5.420000,0.000000
5.430000,0.000000
5.440000,0.000000
5.450000,0.000000
5.460000,0.000000
5.470000,0.000000
5.480000,0.000000
5.490000,0.000000
5.500000,0.000000
5.510000,0.000000
5.520000,0.000000
5.530000,0.000000
5.540000,0.000000
5.550000,0.000000
5.560000,0.000000
5.570000,0.000000
5.580000,0.000000
5.590000,0.000000
5.600000,0.000000
5.610000,0.000000
5.620000,0.000000
5.630000,0.000000
5.640000,0.000000
5.650000,0.000000
5.660000,0.000000
5.670000,0.000000
5.680000,0.000000
5.690000,0.000000
5.700000,0.000000
5.710000,0.000000
5.720000,0.000000
5.730000,0.000000
5.740000,0.000000
5.750000,0.000000
5.760000,0.000000
5.770000,0.000000
5.780000,0.000000
5.790000,0.000000
5.800000,0.000000
5.810000,0.000000
5.820000,0.000000
5.830000,0.000000
5.840000,0.000000
5.850000,0.000000
5.860000,0.000000
5.870000,0.000000
5.880000,0.000000
5.890000,0.000000
5.900000,0.000000
5.910000,0.000000
5.920000,0.000000
5.930000,0.000000
5.940000,0.000000
5.950000,0.000000
5.960000,0.000000
5.970000,0.000000
5.980000,0.000000
5.990000,0.000000
6.000000,0.000000
6.010000,0.000000
6.020000,0.000000
6.030000,0.000000
6.040000,0.000000
6.050000,0.000000
6.060000,0.000000
6.070000,0.000000
6.080000,0.000000
6.090000,0.000000
6.100000,0.000000
6.110000,0.000000
6.120000,0.000000
6.130000,0.000000
6.140000,0.000000
6.150000,0.000000
6.160000,0.000000
6.170000,0.000000
6.180000,0.000000
6.190000,0.000001
6.200000,0.000001
6.210000,0.000001
6.220000,0.000001
6.230000,0.000002
6.240000,0.000001
6.250000,0.000002
6.260000,0.000002
6.270000,0.000002
6.280000,0.000002
6.290000,0.000001
6.300000,0.000001
6.310000,0.000001
6.320000,0.000001
6.330000,0.000001
6.340000,0.000002
6.350000,0.000001
6.360000,0.000000
6.370000,0.000000
6.380000,0.000000
6.390000,0.000001
6.400000,0.000002
6.410000,0.000001
6.420000,0.000001
6.430000,0.000002
6.440000,0.000000
6.450000,0.000000
6.460000,0.000000
6.470000,0.000001
6.480000,0.000000
6.490000,0.000000
6.500000,0.000000
6.510000,0.000001
6.520000,0.000004
6.530000,0.000003
6.540000,0.000001
6.550000,0.000000
6.560000,0.000000
6.570000,0.000000
6.580000,0.000000
6.590000,0.000000
6.600000,0.000000
6.610000,0.000000
6.620000,0.000000
6.630000,0.000000
6.640000,0.000000
6.650000,0.000000
6.660000,0.000000
6.670000,0.000000
6.680000,0.000000
6.690000,0.000000
6.700000,0.000000
6.710000,0.000000
6.720000,0.000000
6.730000,0.000000
6.740000,0.000003
6.750000,0.000000
6.760000,0.000003
6.770000,0.000003
6.780000,0.000001
6.790000,0.000005
6.800000,0.000001
6.810000,0.000006
6.820000,0.000012
6.830000,0.000009
6.840000,0.000011
6.850000,0.000008
6.860000,0.000002
6.870000,0.000003
6.880000,0.000010
6.890000,0.000013
6.900000,0.000017
6.910000,0.000003
6.920000,0.000017
6.930000,0.000003
6.940000,0.000003
6.950000,0.000003
6.960000,0.000003
6.970000,0.000003
6.980000,0.000011
6.990000,0.000003
7.000000,0.000003
7.010000,0.000011
7.020000,0.000000
7.030000,0.000000
7.040000,0.000001
7.050000,0.000000
7.060000,0.000002
7.070000,0.000000
7.080000,0.000000
7.090000,0.000000
7.100000,0.000004
7.110000,0.000000
7.120000,0.000000
7.130000,0.000000
7.140000,0.000000
7.150000,0.000000
7.160000,0.000010
7.170000,0.000000
7.180000,0.000001
7.190000,0.000001
7.200000,0.000024
7.210000,0.001449
7.220000,0.001426
7.230000,0.001781
7.240000,0.001871
7.250000,0.001722
7.260000,0.001807
7.270000,0.001602
7.280000,0.000964
7.290000,0.001370
7.300000,0.002237
7.310000,0.002801
7.320000,0.002980
7.330000,0.002918
7.340000,0.003123
7.350000,0.003044
7.360000,0.002752
7.370000,0.002747
7.380000,0.002611
7.390000,0.002777
7.400000,0.003004
7.410000,0.003507
7.420000,0.004445
7.430000,0.005815
7.440000,0.007552
7.450000,0.009546
7.460000,0.011740
7.470000,0.014170
7.480000,0.017240
7.490000,0.021250
7.500000,0.026930
7.510000,0.034880
7.520000,0.045990
7.530000,0.061040
7.540000,0.080630
7.550000,0.104400
7.560000,0.132000
7.570000,0.160500
7.580000,0.185100
7.590000,0.203900
7.600000,0.214900
7.610000,0.217900
7.620000,0.214000
7.630000,0.206000
7.640000,0.196000
7.650000,0.187000
7.660000,0.179000
7.670000,0.173000
7.680000,0.168000
7.690000,0.165000
7.700000,0.164000
7.710000,0.164000
7.720000,0.164000
7.730000,0.165000
7.740000,0.166000
7.750000,0.166000
7.760000,0.167000
7.770000,0.168000
7.780000,0.170000
7.790000,0.173000
7.800000,0.176000
7.810000,0.179000
7.820000,0.182000
7.830000,0.185000
7.840000,0.188000
7.850000,0.190000
7.860000,0.192000
7.870000,0.193000
7.880000,0.194000
7.890000,0.195000
7.900000,0.197000
7.910000,0.198000
7.920000,0.200000
7.930000,0.204000
7.940000,0.207000
7.950000,0.211000
7.960000,0.216000
7.970000,0.222000
7.980000,0.228000
7.990000,0.233000
8.000000,0.237000
8.010000,0.240000
8.020000,0.243000
8.030000,0.245000
8.040000,0.247000
8.050000,0.248000
8.060000,0.248000
8.070000,0.249000
8.080000,0.249000
8.090000,0.251000
8.100000,0.252000
8.110000,0.252000
8.120000,0.252000
8.130000,0.251000
8.140000,0.249000
8.150000,0.247000
8.160000,0.244000
8.170000,0.241000
8.180000,0.239000
8.190000,0.238000
8.200000,0.236000
8.210000,0.235000
8.220000,0.233000
8.230000,0.232000
8.240000,0.231000
8.250000,0.229000
8.260000,0.226000
8.270000,0.222000
8.280000,0.218000
8.290000,0.214000
8.300000,0.213000
8.310000,0.213000
8.320000,0.213000
8.330000,0.214000
8.340000,0.214000
8.350000,0.213000
8.360000,0.212000
8.370000,0.212000
8.380000,0.213000
8.390000,0.215000
8.400000,0.217000
8.410000,0.218000
8.420000,0.220000
8.430000,0.222000
8.440000,0.224000
8.450000,0.226000
8.460000,0.229000
8.470000,0.232000
8.480000,0.235000
8.490000,0.238000
8.500000,0.241000
8.510000,0.244000
8.520000,0.246000
8.530000,0.248000
8.540000,0.250000
8.550000,0.252000
8.560000,0.254000
8.570000,0.255000
8.580000,0.256000
8.590000,0.256000
8.600000,0.255000
8.610000,0.254000
8.620000,0.253000
8.630000,0.252000
8.640000,0.250000
8.650000,0.249000
8.660000,0.248000
8.670000,0.247000
8.680000,0.246000
8.690000,0.244000
8.700000,0.243000
8.710000,0.241000
8.720000,0.240000
8.730000,0.239000
8.740000,0.236000
8.750000,0.231000
8.760000,0.220000
8.770000,0.201000
8.780000,0.175000
8.790000,0.150000
8.800000,0.136000
8.810000,0.140000
8.820000,0.157000
8.830000,0.180000
8.840000,0.200000
8.850000,0.214000
8.860000,0.222000
8.870000,0.227000
8.880000,0.230000
8.890000,0.233000
8.900000,0.236000
8.910000,0.239000
8.920000,0.241000
8.930000,0.243000
8.940000,0.244000
8.950000,0.244000
8.960000,0.245000
8.970000,0.246000
8.980000,0.246000
8.990000,0.247000
9.000000,0.247000
9.010000,0.246000
9.020000,0.245000
9.030000,0.244000
9.040000,0.243000
9.050000,0.242000
9.060000,0.242000
9.070000,0.243000
9.080000,0.243000
9.090000,0.244000
9.100000,0.245000
9.110000,0.247000
9.120000,0.247000
9.130000,0.248000
9.140000,0.248000
9.150000,0.247000
9.160000,0.246000
9.170000,0.244000
9.180000,0.243000
9.190000,0.241000
9.200000,0.240000
9.210000,0.240000
9.220000,0.239000
9.230000,0.239000
9.240000,0.238000
9.250000,0.238000
9.260000,0.236000
9.270000,0.236000
9.280000,0.235000
9.290000,0.235000
9.300000,0.236000
9.310000,0.236000
9.320000,0.237000
9.330000,0.237000
9.340000,0.237000
9.350000,0.238000
9.360000,0.238000
9.370000,0.237000
9.380000,0.237000
9.390000,0.237000
9.400000,0.238000
9.410000,0.238000
9.420000,0.239000
9.430000,0.239000
9.440000,0.240000
9.450000,0.241000
9.460000,0.242000
9.470000,0.243000
9.480000,0.245000
9.490000,0.247000
9.500000,0.249000
9.510000,0.251000
9.520000,0.252000
9.530000,0.252000
9.540000,0.252000
9.550000,0.251000
9.560000,0.249000
9.570000,0.248000
9.580000,0.246000
9.590000,0.244000
9.600000,0.242000
9.610000,0.240000
9.620000,0.239000
9.630000,0.238000
9.640000,0.238000
9.650000,0.239000
9.660000,0.240000
9.670000,0.242000
9.680000,0.243000
9.690000,0.245000
9.700000,0.246000
9.710000,0.246000
9.720000,0.246000
9.730000,0.246000
9.740000,0.245000
9.750000,0.244000
9.760000,0.244000
9.770000,0.244000
9.780000,0.244000
9.790000,0.245000
9.800000,0.246000
9.810000,0.247000
9.820000,0.248000
9.830000,0.249000
9.840000,0.250000
9.850000,0.251000
9.860000,0.252000
9.870000,0.253000
9.880000,0.254000
9.890000,0.255000
9.900000,0.257000
9.910000,0.259000
9.920000,0.262000
9.930000,0.264000
9.940000,0.267000
9.950000,0.269000
9.960000,0.271000
9.970000,0.273000
9.980000,0.274000
9.990000,0.276000
10.000000,0.277000
10.010000,0.279000
10.020000,0.282000
10.030000,0.284000
10.040000,0.287000
10.050000,0.291000
10.060000,0.295000
10.070000,0.299000
10.080000,0.302000
10.090000,0.306000
10.100000,0.310000
10.110000,0.313000
10.120000,0.316000
10.130000,0.319000
10.140000,0.321000
10.150000,0.323000
10.160000,0.325000
10.170000,0.327000
10.180000,0.327000
10.190000,0.327000
10.200000,0.326000
10.210000,0.324000
10.220000,0.322000
10.230000,0.320000
10.240000,0.318000
10.250000,0.317000
10.260000,0.315000
10.270000,0.312000
10.280000,0.310000
10.290000,0.307000
10.300000,0.305000
10.310000,0.302000
10.320000,0.301000
10.330000,0.300000
10.340000,0.299000
10.350000,0.299000
10.360000,0.299000
10.370000,0.299000
10.380000,0.299000
10.390000,0.298000
10.400000,0.297000
10.410000,0.296000
10.420000,0.295000
10.430000,0.294000
10.440000,0.292000
10.450000,0.292000
10.460000,0.291000
10.470000,0.291000
10.480000,0.291000
10.490000,0.292000
10.500000,0.293000
10.510000,0.294000
10.520000,0.295000
10.530000,0.295000
10.540000,0.296000
10.550000,0.297000
10.560000,0.298000
10.570000,0.299000
10.580000,0.301000
10.590000,0.302000
10.600000,0.304000
10.610000,0.305000
10.620000,0.306000
10.630000,0.307000
10.640000,0.308000
10.650000,0.309000
10.660000,0.310000
10.670000,0.311000
10.680000,0.313000
10.690000,0.314000
10.700000,0.314000
10.710000,0.315000
10.720000,0.315000
10.730000,0.314000
10.740000,0.313000
10.750000,0.312000
10.760000,0.311000
10.770000,0.310000
10.780000,0.309000
10.790000,0.308000
10.800000,0.308000
10.810000,0.308000
10.820000,0.309000
10.830000,0.310000
10.840000,0.311000
10.850000,0.312000
10.860000,0.313000
10.870000,0.313000
10.880000,0.312000
10.890000,0.311000
10.900000,0.310000
10.910000,0.308000
10.920000,0.306000
10.930000,0.305000
10.940000,0.303000
10.950000,0.301000
10.960000,0.300000
10.970000,0.299000
10.980000,0.298000
10.990000,0.298000
11.000000,0.298000
11.010000,0.298000
11.020000,0.299000
11.030000,0.300000
11.040000,0.301000
11.050000,0.301000
11.060000,0.301000
11.070000,0.300000
11.080000,0.299000
11.090000,0.299000
11.100000,0.298000
11.110000,0.298000
11.120000,0.297000
11.130000,0.297000
11.140000,0.297000
11.150000,0.296000
11.160000,0.296000
11.170000,0.294000
11.180000,0.293000
11.190000,0.291000
11.200000,0.289000
11.210000,0.287000
11.220000,0.285000
11.230000,0.283000
11.240000,0.282000
11.250000,0.281000
11.260000,0.280000
11.270000,0.280000
11.280000,0.281000
11.290000,0.281000
11.300000,0.282000
11.310000,0.283000
11.320000,0.285000
11.330000,0.286000
11.340000,0.287000
11.350000,0.288000
11.360000,0.289000
11.370000,0.289000
11.380000,0.290000
11.390000,0.290000
11.400000,0.291000
11.410000,0.291000
11.420000,0.292000
11.430000,0.293000
11.440000,0.294000
11.450000,0.295000
11.460000,0.296000
11.470000,0.298000
11.480000,0.299000
11.490000,0.301000
11.500000,0.302000
11.510000,0.304000
11.520000,0.306000
11.530000,0.308000
11.540000,0.310000
11.550000,0.312000
11.560000,0.314000
11.570000,0.315000
11.580000,0.316000
11.590000,0.317000
11.600000,0.317000
11.610000,0.318000
11.620000,0.318000
11.630000,0.319000
11.640000,0.319000
11.650000,0.320000
11.660000,0.320000
11.670000,0.321000
11.680000,0.321000
11.690000,0.321000
11.700000,0.321000
11.710000,0.320000
11.720000,0.319000
11.730000,0.317000
11.740000,0.315000
11.750000,0.314000
11.760000,0.312000
11.770000,0.310000
11.780000,0.309000
11.790000,0.308000
11.800000,0.307000
11.810000,0.307000
11.820000,0.306000
11.830000,0.306000
11.840000,0.306000
11.850000,0.305000
11.860000,0.304000
11.870000,0.303000
11.880000,0.302000
11.890000,0.301000
11.900000,0.299000
11.910000,0.298000
11.920000,0.297000
11.930000,0.296000
11.940000,0.295000
11.950000,0.295000
11.960000,0.294000
11.970000,0.294000
11.980000,0.294000
11.990000,0.293000
12.000000,0.293000
12.010000,0.292000
12.020000,0.291000
12.030000,0.290000
12.040000,0.289000
12.050000,0.288000
12.060000,0.286000
12.070000,0.285000
12.080000,0.283000
12.090000,0.283000
12.100000,0.282000
12.110000,0.282000
12.120000,0.282000
12.130000,0.283000
12.140000,0.284000
12.150000,0.285000
12.160000,0.286000
12.170000,0.287000
12.180000,0.288000
12.190000,0.289000
12.200000,0.291000
12.210000,0.291000
12.220000,0.292000
12.230000,0.293000
12.240000,0.293000
12.250000,0.294000
12.260000,0.294000
12.270000,0.294000
12.280000,0.295000
12.290000,0.295000
12.300000,0.296000
12.310000,0.297000
12.320000,0.299000
12.330000,0.301000
12.340000,0.303000
12.350000,0.305000
12.360000,0.307000
12.370000,0.309000
12.380000,0.311000
12.390000,0.314000
12.400000,0.316000
12.410000,0.319000
12.420000,0.322000
12.430000,0.324000
12.440000,0.327000
12.450000,0.329000
12.460000,0.332000
12.470000,0.334000
12.480000,0.336000
12.490000,0.337000
12.500000,0.338000
12.510000,0.339000
12.520000,0.340000
12.530000,0.339000
12.540000,0.339000
12.550000,0.338000
12.560000,0.337000
12.570000,0.336000
12.580000,0.335000
12.590000,0.334000
12.600000,0.334000
12.610000,0.334000
12.620000,0.334000
12.630000,0.335000
12.640000,0.336000
12.650000,0.337000
12.660000,0.338000
12.670000,0.337900
12.680000,0.338900
12.690000,0.338900
12.700000,0.338900
12.710000,0.338900
12.720000,0.338900
12.730000,0.339000
12.740000,0.339000
12.750000,0.339000
12.760000,0.340000
12.770000,0.340000
12.780000,0.341000
12.790000,0.342000
12.800000,0.343000
12.810000,0.344000
12.820000,0.346000
12.830000,0.348000
12.840000,0.350000
12.850000,0.352000
12.860000,0.355000
12.870000,0.357000
12.880000,0.359000
12.890000,0.362000
12.900000,0.363000
12.910000,0.365000
12.920000,0.366000
12.930000,0.367000
12.940000,0.367000
12.950000,0.368000
12.960000,0.368000
12.970000,0.367000
12.980000,0.367000
12.990000,0.367000
13.000000,0.367000
13.010000,0.367000
13.020000,0.367000
13.030000,0.368000
13.040000,0.369000
13.050000,0.370000
13.060000,0.371000
13.070000,0.373000
13.080000,0.376000
13.090000,0.378000
13.100000,0.381000
13.110000,0.384000
13.120000,0.387000
13.130000,0.390000
13.140000,0.392000
13.150000,0.395000
13.160000,0.398000
13.170000,0.400000
13.180000,0.402000
13.190000,0.404000
13.200000,0.406000
13.210000,0.408000
13.220000,0.409000
13.230000,0.410000
13.240000,0.411000
13.250000,0.412000
13.260000,0.413000
13.270000,0.414000
13.280000,0.414000
13.290000,0.414000
13.300000,0.414000
13.310000,0.414000
13.320000,0.413000
13.330000,0.412000
13.340000,0.410000
13.350000,0.409000
13.360000,0.408000
13.370000,0.406000
13.380000,0.405000
13.390000,0.404000
13.400000,0.403000
13.410000,0.403000
13.420000,0.403000
13.430000,0.403000
13.440000,0.403000
13.450000,0.404000
13.460000,0.404000
13.470000,0.405000
13.480000,0.405000
13.490000,0.406000
13.500000,0.406000
13.510000,0.406000
13.520000,0.406000
13.530000,0.406000
13.540000,0.406000
13.550000,0.406000
13.560000,0.406000
13.570000,0.407000
13.580000,0.407000
13.590000,0.408000
13.600000,0.408000
13.610000,0.409000
13.620000,0.409000
13.630000,0.410000
13.640000,0.410000
13.650000,0.410000
13.660000,0.409000
13.670000,0.409000
13.680000,0.408000
13.690000,0.407000
13.700000,0.406000
13.710000,0.405000
13.720000,0.404000
13.730000,0.403000
13.740000,0.402000
13.750000,0.401000
13.760000,0.401000
13.770000,0.401000
13.780000,0.401000
13.790000,0.401000
13.800000,0.402000
13.810000,0.402000
13.820000,0.403000
13.830000,0.404000
13.840000,0.404000
13.850000,0.404000
13.860000,0.405000
13.870000,0.405000
13.880000,0.405000
13.890000,0.405000
13.900000,0.405000
13.910000,0.406000
13.920000,0.406000
13.930000,0.406000
13.940000,0.407000
13.950000,0.408000
13.960000,0.409000
13.970000,0.410000
13.980000,0.411000
13.990000,0.412000
14.000000,0.414000
14.010000,0.415000
14.020000,0.416000
14.030000,0.417000
14.040000,0.418000
14.050000,0.418000
14.060000,0.419000
14.070000,0.419000
14.080000,0.418000
14.090000,0.418000
14.100000,0.417000
14.110000,0.417000
14.120000,0.416000
14.130000,0.415000
14.140000,0.415000
14.150000,0.415000
14.160000,0.414000
14.170000,0.415000
14.180000,0.415000
14.190000,0.416000
14.200000,0.416000
14.210000,0.417000
14.220000,0.418000
14.230000,0.418000
14.240000,0.419000
14.250000,0.419000
14.260000,0.419000
14.270000,0.418000
14.280000,0.417000
14.290000,0.417000
14.300000,0.416000
14.310000,0.415000
14.320000,0.415000
14.330000,0.414000
14.340000,0.414000
14.350000,0.414000
14.360000,0.415000
14.370000,0.415000
14.380000,0.416000
14.390000,0.417000
14.400000,0.418000
14.410000,0.418000
14.420000,0.419000
14.430000,0.420000
14.440000,0.420000
14.450000,0.420000
14.460000,0.420000
14.470000,0.419000
14.480000,0.418000
14.490000,0.417000
14.500000,0.416000
14.510000,0.415000
14.520000,0.414000
14.530000,0.413000
14.540000,0.412000
14.550000,0.411000
14.560000,0.410000
14.570000,0.409000
14.580000,0.408000
14.590000,0.407000
14.600000,0.406000
14.610000,0.405000
14.620000,0.404000
14.630000,0.403000
14.640000,0.402000
14.650000,0.401000
14.660000,0.400000
14.670000,0.399000
14.680000,0.398000
14.690000,0.398000
14.700000,0.397000
14.710000,0.397000
14.720000,0.396000
14.730000,0.396000
14.740000,0.395000
14.750000,0.395000
14.760000,0.395000
14.770000,0.394000
14.780000,0.393000
14.790000,0.392000
14.800000,0.391000
14.810000,0.391000
14.820000,0.389000
14.830000,0.388000
14.840000,0.387000
14.850000,0.386000
14.860000,0.385000
14.870000,0.384000
14.880000,0.383000
14.890000,0.382000
14.900000,0.381000
14.910000,0.380000
14.920000,0.379000
14.930000,0.377000
14.940000,0.376000
14.950000,0.375000
14.960000,0.373000
14.970000,0.372000
14.980000,0.371000
14.990000,0.369000
15.000000,0.368000
15.010000,0.367000
15.020000,0.366000
15.030000,0.365000
15.040000,0.364000
15.050000,0.363000
15.060000,0.362000
15.070000,0.361000
15.080000,0.360000
15.090000,0.359000
15.100000,0.357000
15.110000,0.356000
15.120000,0.355000
15.130000,0.353000
15.140000,0.351000
15.150000,0.349000
15.160000,0.347000
15.170000,0.344000
15.180000,0.341000
15.190000,0.338000
15.200000,0.335000
15.210000,0.332000
15.220000,0.328000
15.230000,0.325000
15.240000,0.321000
15.250000,0.318000
15.260000,0.315000
15.270000,0.311000
15.280000,0.308000
15.290000,0.305000
15.300000,0.302000
15.310000,0.299000
15.320000,0.297000
15.330000,0.294000
15.340000,0.291000
15.350000,0.288000
15.360000,0.285000
15.370000,0.282000
15.380000,0.279100
15.390000,0.276100
15.400000,0.273100
15.410000,0.270100
15.420000,0.267100
15.430000,0.265000
15.440000,0.262000
15.450000,0.260000
15.460000,0.259000
15.470000,0.257000
15.480000,0.256000
15.490000,0.255000
15.500000,0.254000
15.510000,0.254000
15.520000,0.254000
15.530000,0.253000
15.540000,0.253000
15.550000,0.253000
15.560000,0.253000
15.570000,0.253000
15.580000,0.254000
15.590000,0.254000
15.600000,0.254000
15.610000,0.254000
15.620000,0.255000
15.630000,0.255000
15.640000,0.256000
15.650000,0.256000
15.660000,0.257000
15.670000,0.257000
15.680000,0.258000
15.690000,0.258000
15.700000,0.258000
15.710000,0.259000
15.720000,0.259000
15.730000,0.259000
15.740000,0.259000
15.750000,0.258000
15.760000,0.258000
15.770000,0.258000
15.780000,0.257000
15.790000,0.257000
15.800000,0.256000
15.810000,0.255000
15.820000,0.255000
15.830000,0.254000
15.840000,0.253000
15.850000,0.252000
15.860000,0.250000
15.870000,0.249000
15.880000,0.248000
15.890000,0.246000
15.900000,0.245000
15.910000,0.243000
15.920000,0.241000
15.930000,0.240000
15.940000,0.238000
15.950000,0.236000
15.960000,0.235000
15.970000,0.233000
15.980000,0.232000
15.990000,0.231000
16.000000,0.230000
16.010000,0.229000
16.020000,0.228000
16.030000,0.227000
16.040000,0.227000
16.050000,0.226000
16.060000,0.226000
16.070000,0.226000
16.080000,0.226000
16.090000,0.226000
16.100000,0.225000
16.110000,0.225000
16.120000,0.225000
16.130000,0.224000
16.140000,0.224000
16.150000,0.224000
16.160000,0.223000
16.170000,0.222000
16.180000,0.222000
16.190000,0.221000
16.200000,0.220000
16.210000,0.219000
16.220000,0.218000
16.230000,0.217000
16.240000,0.215000
16.250000,0.214000
16.260000,0.212000
16.270000,0.210000
16.280000,0.208000
16.290000,0.206000
16.300000,0.203000
16.310000,0.200000
16.320000,0.197100
16.330000,0.194100
16.340000,0.191100
16.350000,0.187100
16.360000,0.183100
16.370000,0.179100
16.380000,0.175100
16.390000,0.171100
16.400000,0.167100
16.410000,0.162100
16.420000,0.158100
16.430000,0.153100
16.440000,0.149100
16.450000,0.144100
16.460000,0.139100
16.470000,0.135100
16.480000,0.130100
16.490000,0.125100
16.500000,0.121100
16.510000,0.116100
16.520000,0.112100
16.530000,0.107100
16.540000,0.103100
16.550000,0.098260
16.560000,0.093950
16.570000,0.089750
16.580000,0.085740
16.590000,0.081640
16.600000,0.077840
16.610000,0.074150
16.620000,0.070550
16.630000,0.067050
16.640000,0.063660
16.650000,0.060560
16.660000,0.057460
16.670000,0.054460
16.680000,0.051750
16.690000,0.049150
16.700000,0.046640
16.710000,0.044330
16.720000,0.042030
16.730000,0.039920
16.740000,0.038020
16.750000,0.036020
16.760000,0.034320
16.770000,0.032720
16.780000,0.031120
16.790000,0.029720
16.800000,0.028330
16.810000,0.027020
16.820000,0.025820
16.830000,0.024620
16.840000,0.023620
16.850000,0.022610
16.860000,0.021610
16.870000,0.020710
16.880000,0.019800
16.890000,0.019000
16.900000,0.018290
16.910000,0.017490
16.920000,0.016880
16.930000,0.016180
16.940000,0.015580
16.950000,0.015080
16.960000,0.014480
16.970000,0.013980
16.980000,0.013480
16.990000,0.013080
17.000000,0.012680
17.010000,0.012280
17.020000,0.011880
17.030000,0.011480
17.040000,0.011170
17.050000,0.010780
17.060000,0.010470
17.070000,0.010170
17.080000,0.009841
17.090000,0.009527
17.100000,0.009220
17.110000,0.008904
17.120000,0.008581
17.130000,0.008264
17.140000,0.007939
17.150000,0.007596
17.160000,0.007261
17.170000,0.006905
17.180000,0.006539
17.190000,0.006171
17.200000,0.005805
17.210000,0.005428
17.220000,0.005052
17.230000,0.004674
17.240000,0.004306
17.250000,0.003927
17.260000,0.003567
17.270000,0.003206
17.280000,0.002844
17.290000,0.002495
17.300000,0.002175
17.310000,0.001847
17.320000,0.001553
17.330000,0.001250
17.340000,0.000976
17.350000,0.000660
17.360000,0.000700
17.370000,0.000442
17.380000,0.002304
17.390000,0.002469
17.400000,0.002486
17.410000,0.002345
17.420000,0.002029
17.430000,0.001590
17.440000,0.001059
17.450000,0.000437
17.460000,0.001136
17.470000,0.000234
17.480000,0.000643
17.490000,0.000880
17.500000,0.001010
17.510000,0.001365
17.520000,0.001328
17.530000,0.001098
17.540000,0.000921
17.550000,0.000769
17.560000,0.000632
17.570000,0.000503
17.580000,0.000363
17.590000,0.000419
17.600000,0.000380
17.610000,0.000346
17.620000,0.000317
17.630000,0.000294
17.640000,0.000265
17.650000,0.000218
17.660000,0.000205
17.670000,0.000187
17.680000,0.000170
17.690000,0.000153
17.700000,0.000137
17.710000,0.000119
17.720000,0.000111
17.730000,0.000103
17.740000,0.000097
17.750000,0.000092
17.760000,0.000087
17.770000,0.000081
17.780000,0.000076
17.790000,0.000072
17.800000,0.000069
17.810000,0.000065
17.820000,0.000062
17.830000,0.000060
17.840000,0.000057
17.850000,0.000055
17.860000,0.000053
17.870000,0.000051
17.880000,0.000049
17.890000,0.000048
17.900000,0.000047
17.910000,0.000047
17.920000,0.000046
17.930000,0.000045
17.940000,0.000044
17.950000,0.000043
17.960000,0.000049
17.970000,0.000050
17.980000,0.000051
17.990000,0.000050
18.000000,0.000050
18.010000,0.000050
18.020000,0.000049
18.030000,0.000048
18.040000,0.000046
18.050000,0.000040
18.060000,0.000040
18.070000,0.000040
18.080000,0.000040
18.090000,0.000041
18.100000,0.000041
18.110000,0.000041
18.120000,0.000041
18.130000,0.000041
18.140000,0.000041
18.150000,0.000041
18.160000,0.000041
18.170000,0.000041
18.180000,0.000041
18.190000,0.000047
18.200000,0.000050
18.210000,0.000051
18.220000,0.000051
18.230000,0.000050
18.240000,0.000050
18.250000,0.000049
18.260000,0.000047
18.270000,0.000045
18.280000,0.000043
18.290000,0.000039
18.300000,0.000039
18.310000,0.000039
18.320000,0.000038
18.330000,0.000037
18.340000,0.000037
18.350000,0.000036
18.360000,0.000036
18.370000,0.000035
18.380000,0.000035
18.390000,0.000034
18.400000,0.000034
18.410000,0.000033
18.420000,0.000032
18.430000,0.000031
18.440000,0.000031
18.450000,0.000029
18.460000,0.000032
18.470000,0.000033
18.480000,0.000033
18.490000,0.000033
18.500000,0.000032
18.510000,0.000032
18.520000,0.000031
18.530000,0.000030
18.540000,0.000030
18.550000,0.000029
18.560000,0.000028
18.570000,0.000027
18.580000,0.000026
18.590000,0.000025
18.600000,0.000025
18.610000,0.000024
18.620000,0.000024
18.630000,0.000024
18.640000,0.000022
18.650000,0.000020
18.660000,0.000020
18.670000,0.000019
18.680000,0.000019
18.690000,0.000019
18.700000,0.000019
18.710000,0.000019
18.720000,0.000019
18.730000,0.000019
18.740000,0.000021
18.750000,0.000021
18.760000,0.000021
18.770000,0.000021
18.780000,0.000021
18.790000,0.000020
18.800000,0.000018
18.810000,0.000017
18.820000,0.000017
18.830000,0.000017
18.840000,0.000017
18.850000,0.000017
18.860000,0.000017
18.870000,0.000017
18.880000,0.000016
18.890000,0.000016
18.900000,0.000016
18.910000,0.000016
18.920000,0.000017
18.930000,0.000018
18.940000,0.000018
18.950000,0.000018
18.960000,0.000018
18.970000,0.000018
18.980000,0.000018
18.990000,0.000017
19.000000,0.000015
19.010000,0.000014
19.020000,0.000014
19.030000,0.000014
19.040000,0.000014
19.050000,0.000014
19.060000,0.000013
19.070000,0.000013
19.080000,0.000013
19.090000,0.000015
19.100000,0.000015
19.110000,0.000015
19.120000,0.000015
19.130000,0.000014
19.140000,0.000014
19.150000,0.000013
19.160000,0.000013
19.170000,0.000013
19.180000,0.000012
19.190000,0.000012
19.200000,0.000012
19.210000,0.000012
19.220000,0.000013
19.230000,0.000013
19.240000,0.000013
19.250000,0.000013
19.260000,0.000013
19.270000,0.000013
19.280000,0.000013
19.290000,0.000013
19.300000,0.000013
19.310000,0.000013
19.320000,0.000013
19.330000,0.000012
19.340000,0.000012
19.350000,0.000012
19.360000,0.000012
19.370000,0.000012
19.380000,0.000012
19.390000,0.000011
19.400000,0.000011
19.410000,0.000011
19.420000,0.000011
19.430000,0.000010
19.440000,0.000010
19.450000,0.000010
19.460000,0.000010
19.470000,0.000010
19.480000,0.000010
19.490000,0.000010
19.500000,0.000010
19.510000,0.000010
19.520000,0.000010
19.530000,0.000011
19.540000,0.000010
19.550000,0.000010
19.560000,0.000010
19.570000,0.000010
19.580000,0.000010
19.590000,0.000009
19.600000,0.000009
19.610000,0.000008
19.620000,0.000008
19.630000,0.000008
19.640000,0.000009
19.650000,0.000009
19.660000,0.000009
19.670000,0.000009
19.680000,0.000009
19.690000,0.000009
19.700000,0.000009
19.710000,0.000009
19.720000,0.000009
19.730000,0.000009
19.740000,0.000009
19.750000,0.000008
19.760000,0.000008
19.770000,0.000008
19.780000,0.000008
19.790000,0.000008
19.800000,0.000008
19.810000,0.000008
19.820000,0.000008
19.830000,0.000008
19.840000,0.000008
19.850000,0.000008
19.860000,0.000008
19.870000,0.000008
19.880000,0.000008
19.890000,0.000008
19.900000,0.000008
19.910000,0.000008
19.920000,0.000008
19.930000,0.000008
19.940000,0.000007
19.950000,0.000007
19.960000,0.000006
19.970000,0.000007
19.980000,0.000007
19.990000,0.000008
20.000000,0.000008
20.010000,0.000008
20.020000,0.000007
20.030000,0.000007
20.040000,0.000006
20.050000,0.000006
20.060000,0.000006
20.070000,0.000006
20.080000,0.000006
20.090000,0.000006
20.100000,0.000006
20.110000,0.000006
20.120000,0.000006
20.130000,0.000007
20.140000,0.000007
20.150000,0.000007
20.160000,0.000007
20.170000,0.000007
20.180000,0.000007
20.190000,0.000007
20.200000,0.000007
20.210000,0.000007
20.220000,0.000007
20.230000,0.000007
20.240000,0.000007
20.250000,0.000006
20.260000,0.000006
20.270000,0.000006
20.280000,0.000006
20.290000,0.000006
20.300000,0.000006
20.310000,0.000006
20.320000,0.000006
20.330000,0.000006
20.340000,0.000006
20.350000,0.000006
20.360000,0.000006
20.370000,0.000006
20.380000,0.000005
20.390000,0.000005
20.400000,0.000005
20.410000,0.000005
20.420000,0.000005
20.430000,0.000005
20.440000,0.000006
20.450000,0.000006
20.460000,0.000006
20.470000,0.000006
20.480000,0.000006
20.490000,0.000006
20.500000,0.000006
20.510000,0.000006
20.520000,0.000006
20.530000,0.000006
20.540000,0.000006
20.550000,0.000006
20.560000,0.000006
20.570000,0.000005
20.580000,0.000005
20.590000,0.000005
20.600000,0.000005
20.610000,0.000005
20.620000,0.000005
20.630000,0.000005
20.640000,0.000005
20.650000,0.000005
20.660000,0.000005
20.670000,0.000005
20.680000,0.000006
20.690000,0.000006
20.700000,0.000006
20.710000,0.000006
20.720000,0.000006
20.730000,0.000006
20.740000,0.000006
20.750000,0.000006
20.760000,0.000006
20.770000,0.000006
20.780000,0.000006
20.790000,0.000006
20.800000,0.000006
20.810000,0.000006
20.820000,0.000006
20.830000,0.000006
20.840000,0.000006
20.850000,0.000006
20.860000,0.000006
20.870000,0.000005
20.880000,0.000005
20.890000,0.000006
20.900000,0.000006
20.910000,0.000006
20.920000,0.000006
20.930000,0.000006
20.940000,0.000005
20.950000,0.000005
20.960000,0.000005
20.970000,0.000005
20.980000,0.000005
20.990000,0.000005
21.000000,0.000005
21.010000,0.000005
21.020000,0.000005
21.030000,0.000005
21.040000,0.000005
21.050000,0.000005
21.060000,0.000006
21.070000,0.000006
21.080000,0.000006
21.090000,0.000006
21.100000,0.000006
21.110000,0.000006
21.120000,0.000005
21.130000,0.000005
21.140000,0.000004
21.150000,0.000004
21.160000,0.000004
21.170000,0.000004
21.180000,0.000004
21.190000,0.000004
21.200000,0.000004
21.210000,0.000004
21.220000,0.000004
21.230000,0.000004
21.240000,0.000004
21.250000,0.000004
21.260000,0.000004
21.270000,0.000004
21.280000,0.000004
21.290000,0.000005
21.300000,0.000005
21.310000,0.000005
21.320000,0.000005
21.330000,0.000005
21.340000,0.000005
21.350000,0.000005
21.360000,0.000005
21.370000,0.000005
21.380000,0.000005
21.390000,0.000005
21.400000,0.000005
21.410000,0.000006
21.420000,0.000005
21.430000,0.000005
21.440000,0.000005
21.450000,0.000004
21.460000,0.000004
21.470000,0.000005
21.480000,0.000005
21.490000,0.000005
21.500000,0.000005
21.510000,0.000005
21.520000,0.000005
21.530000,0.000004
21.540000,0.000004
21.550000,0.000004
21.560000,0.000004
21.570000,0.000005
21.580000,0.000006
21.590000,0.000006
21.600000,0.000006
21.610000,0.000006
21.620000,0.000006
21.630000,0.000005
21.640000,0.000005
21.650000,0.000005
21.660000,0.000005
21.670000,0.000005
21.680000,0.000005
21.690000,0.000005
21.700000,0.000005
21.710000,0.000006
21.720000,0.000006
21.730000,0.000006
21.740000,0.000006
21.750000,0.000006
21.760000,0.000006
21.770000,0.000005
21.780000,0.000005
21.790000,0.000005
21.800000,0.000005
21.810000,0.000005
21.820000,0.000005
21.830000,0.000006
21.840000,0.000005
21.850000,0.000004
21.860000,0.000004
21.870000,0.000004
21.880000,0.000004
21.890000,0.000004
21.900000,0.000004
21.910000,0.000004
21.920000,0.000004
21.930000,0.000004
21.940000,0.000004
21.950000,0.000004
21.960000,0.000004
21.970000,0.000004
21.980000,0.000005
21.990000,0.000005
22.000000,0.000006
22.010000,0.000006
22.020000,0.000006
22.030000,0.000006
22.040000,0.000006
22.050000,0.000006
22.060000,0.000006
22.070000,0.000006
22.080000,0.000006
22.090000,0.000006
22.100000,0.000006
22.110000,0.000006
22.120000,0.000006
22.130000,0.000006
22.140000,0.000005
22.150000,0.000005
22.160000,0.000004
22.170000,0.000004
22.180000,0.000004
22.190000,0.000004
22.200000,0.000004
22.210000,0.000004
22.220000,0.000004
22.230000,0.000004
22.240000,0.000004
22.250000,0.000003
22.260000,0.000003
22.270000,0.000003
22.280000,0.000003
22.290000,0.000003
22.300000,0.000004
22.310000,0.000005
22.320000,0.000005
22.330000,0.000006
22.340000,0.000006
22.350000,0.000006
22.360000,0.000006
22.370000,0.000006
22.380000,0.000006
22.390000,0.000006
22.400000,0.000005
22.410000,0.000003
22.420000,0.000003
22.430000,0.000003
22.440000,0.000003
22.450000,0.000004
22.460000,0.000005
22.470000,0.000005
22.480000,0.000004
22.490000,0.000003
22.500000,0.000003
22.510000,0.000003
22.520000,0.000003
22.530000,0.000003
22.540000,0.000003
22.550000,0.000003
22.560000,0.000003
22.570000,0.000003
22.580000,0.000003
22.590000,0.000003
22.600000,0.000003
22.610000,0.000003
22.620000,0.000003
22.630000,0.000004
22.640000,0.000004
22.650000,0.000004
22.660000,0.000004
22.670000,0.000004
22.680000,0.000004
22.690000,0.000004
22.700000,0.000004
22.710000,0.000004
22.720000,0.000004
22.730000,0.000004
22.740000,0.000004
22.750000,0.000004
22.760000,0.000004
22.770000,0.000004
22.780000,0.000004
22.790000,0.000004
22.800000,0.000004
22.810000,0.000004
22.820000,0.000004
22.830000,0.000004
22.840000,0.000004
22.850000,0.000004
22.860000,0.000004
22.870000,0.000004
22.880000,0.000004
22.890000,0.000004
22.900000,0.000004
22.910000,0.000004
22.920000,0.000004
22.930000,0.000004
22.940000,0.000004
22.950000,0.000004
22.960000,0.000004
22.970000,0.000004
22.980000,0.000004
22.990000,0.000004
23.000000,0.000004
23.010000,0.000004
23.020000,0.000005
23.030000,0.000006
23.040000,0.000006
23.050000,0.000004
23.060000,0.000004
23.070000,0.000004
23.080000,0.000004
23.090000,0.000004
23.100000,0.000004
23.110000,0.000004
23.120000,0.000004
23.130000,0.000004
23.140000,0.000004
23.150000,0.000004
23.160000,0.000007
23.170000,0.000009
23.180000,0.000011
23.190000,0.000012
23.200000,0.000013
23.210000,0.000013
23.220000,0.000012
23.230000,0.000012
23.240000,0.000011
23.250000,0.000011
23.260000,0.000010
23.270000,0.000010
23.280000,0.000009
23.290000,0.000008
23.300000,0.000007
23.310000,0.000006
23.320000,0.000005
23.330000,0.000004
23.340000,0.000004
23.350000,0.000004
23.360000,0.000004
23.370000,0.000004
23.380000,0.000005
23.390000,0.000003
23.400000,0.000005
23.410000,0.000006
23.420000,0.000006
23.430000,0.000006
23.440000,0.000006
23.450000,0.000006
23.460000,0.000006
23.470000,0.000004
23.480000,0.000005
23.490000,0.000005
23.500000,0.000005
23.510000,0.000005
23.520000,0.000005
23.530000,0.000005
23.540000,0.000005
23.550000,0.000005
23.560000,0.000005
23.570000,0.000005
23.580000,0.000005
23.590000,0.000005
23.600000,0.000005
23.610000,0.000005
23.620000,0.000005
23.630000,0.000005
23.640000,0.000005
23.650000,0.000005
23.660000,0.000005
23.670000,0.000006
23.680000,0.000006
23.690000,0.000007
23.700000,0.000009
23.710000,0.000011
23.720000,0.000012
23.730000,0.000013
23.740000,0.000014
23.750000,0.000014
23.760000,0.000012
23.770000,0.000008
23.780000,0.000006
23.790000,0.000006
23.800000,0.000006
23.810000,0.000006
23.820000,0.000006
23.830000,0.000006
23.840000,0.000011
23.850000,0.000014
23.860000,0.000016
23.870000,0.000017
23.880000,0.000017
23.890000,0.000016
23.900000,0.000016
23.910000,0.000016
23.920000,0.000015
23.930000,0.000013
23.940000,0.000009
23.950000,0.000007
23.960000,0.000007
23.970000,0.000007
23.980000,0.000008
23.990000,0.000008
24.000000,0.000004
24.010000,0.000013
24.020000,0.000017
24.030000,0.000019
24.040000,0.000020
24.050000,0.000019
24.060000,0.000018
24.070000,0.000018
24.080000,0.000017
24.090000,0.000017
24.100000,0.000017
24.110000,0.000016
24.120000,0.000016
24.130000,0.000016
24.140000,0.000016
24.150000,0.000016
24.160000,0.000016
24.170000,0.000017
24.180000,0.000018
24.190000,0.000018
24.200000,0.000018
24.210000,0.000018
24.220000,0.000016
24.230000,0.000012
24.240000,0.000010
24.250000,0.000010
24.260000,0.000010
24.270000,0.000010
24.280000,0.000010
24.290000,0.000010
24.300000,0.000010
24.310000,0.000015
24.320000,0.000019
24.330000,0.000020
24.340000,0.000020
24.350000,0.000020
24.360000,0.000019
24.370000,0.000018
24.380000,0.000017
24.390000,0.000017
24.400000,0.000017
24.410000,0.000018
24.420000,0.000018
24.430000,0.000019
24.440000,0.000019
24.450000,0.000020
24.460000,0.000022
24.470000,0.000023
24.480000,0.000025
24.490000,0.000026
24.500000,0.000028
24.510000,0.000028
24.520000,0.000027
24.530000,0.000026
24.540000,0.000024
24.550000,0.000023
24.560000,0.000021
24.570000,0.000019
24.580000,0.000016
24.590000,0.000012
24.600000,0.000017
24.610000,0.000017
24.620000,0.000017
24.630000,0.000018
24.640000,0.000008
24.650000,0.000021
24.660000,0.000028
24.670000,0.000033
24.680000,0.000036
24.690000,0.000037
24.700000,0.000037
24.710000,0.000035
24.720000,0.000033
24.730000,0.000030
24.740000,0.000026
24.750000,0.000023
24.760000,0.000021
24.770000,0.000020
24.780000,0.000020
24.790000,0.000018
24.800000,0.000017
24.810000,0.000017
24.820000,0.000020
24.830000,0.000023
24.840000,0.000026
24.850000,0.000029
24.860000,0.000033
24.870000,0.000035
24.880000,0.000034
24.890000,0.000029
24.900000,0.000021
24.910000,0.000004
24.920000,0.000047
24.930000,0.000049
24.940000,0.000052
24.950000,0.000055
24.960000,0.000059
24.970000,0.000062
24.980000,0.000066
24.990000,0.000070
25.000000,0.000074
25.010000,0.000080
25.020000,0.000085
25.030000,0.000091
25.040000,0.000097
25.050000,0.000105
25.060000,0.000110
25.070000,0.000118
25.080000,0.000126
25.090000,0.000135
25.100000,0.000143
25.110000,0.000153
25.120000,0.000027
25.130000,0.000036
25.140000,0.000041
25.150000,0.000043
25.160000,0.000042
25.170000,0.000042
25.180000,0.000050
25.190000,0.000065
25.200000,0.000082
25.210000,0.000098
25.220000,0.000115
25.230000,0.000132
25.240000,0.000147
25.250000,0.000156
25.260000,0.000160
25.270000,0.000161
25.280000,0.000162
25.290000,0.000164
25.300000,0.000166
25.310000,0.000167
25.320000,0.000162
25.330000,0.000153
25.340000,0.000143
25.350000,0.000133
25.360000,0.000118
25.370000,0.000101
25.380000,0.000095
25.390000,0.000110
25.400000,0.000130
25.410000,0.000144
25.420000,0.000154
25.430000,0.000162
25.440000,0.000171
25.450000,0.000181
25.460000,0.000191
25.470000,0.000201
25.480000,0.000208
25.490000,0.000215
25.500000,0.000220
25.510000,0.000225
25.520000,0.000229
25.530000,0.000232
25.540000,0.000235
25.550000,0.000237
25.560000,0.000239
25.570000,0.000238
25.580000,0.000237
25.590000,0.000234
25.600000,0.000230
25.610000,0.000226
25.620000,0.000223
25.630000,0.000220
25.640000,0.000217
25.650000,0.000215
25.660000,0.000212
25.670000,0.000209
25.680000,0.000208
25.690000,0.000207
25.700000,0.000204
25.710000,0.000198
25.720000,0.000190
25.730000,0.000182
25.740000,0.000175
25.750000,0.000166
25.760000,0.000158
25.770000,0.000153
25.780000,0.000153
25.790000,0.000157
25.800000,0.000159
25.810000,0.000160
25.820000,0.000162
25.830000,0.000164
25.840000,0.000165
25.850000,0.000164
25.860000,0.000162
25.870000,0.000161
25.880000,0.000160
25.890000,0.000159
25.900000,0.000158
25.910000,0.000156
25.920000,0.000153
25.930000,0.000150
25.940000,0.000147
25.950000,0.000143
25.960000,0.000140
25.970000,0.000138
25.980000,0.000137
25.990000,0.000136
26.000000,0.000136
26.010000,0.000135
26.020000,0.000135
26.030000,0.000135
26.040000,0.000136
26.050000,0.000138
26.060000,0.000140
26.070000,0.000142
26.080000,0.000146
26.090000,0.000149
26.100000,0.000150
26.110000,0.000148
26.120000,0.000145
26.130000,0.000140
26.140000,0.000135
26.150000,0.000129
26.160000,0.000123
26.170000,0.000118
26.180000,0.000112
26.190000,0.000108
26.200000,0.000103
26.210000,0.000099
26.220000,0.000093
26.230000,0.000086
26.240000,0.000081
26.250000,0.000082
26.260000,0.000088
26.270000,0.000094
26.280000,0.000099
26.290000,0.000103
26.300000,0.000108
26.310000,0.000113
26.320000,0.000115
26.330000,0.000115
26.340000,0.000114
26.350000,0.000114
26.360000,0.000115
26.370000,0.000115
26.380000,0.000115
26.390000,0.000116
26.400000,0.000117
26.410000,0.000120
26.420000,0.000121
26.430000,0.000123
26.440000,0.000124
26.450000,0.000123
26.460000,0.000121
26.470000,0.000116
26.480000,0.000108
26.490000,0.000099
26.500000,0.000090
26.510000,0.000080
26.520000,0.000068
26.530000,0.000054
26.540000,0.000036
26.550000,0.000143
26.560000,0.000144
26.570000,0.000145
26.580000,0.000147
26.590000,0.000149
26.600000,0.000149
26.610000,0.000150
26.620000,0.000152
26.630000,0.000153
26.640000,0.000154
26.650000,0.000156
26.660000,0.000031
26.670000,0.000040
26.680000,0.000043
26.690000,0.000045
26.700000,0.000047
26.710000,0.000050
26.720000,0.000053
26.730000,0.000054
26.740000,0.000050
26.750000,0.000042
26.760000,0.000031
26.770000,0.000015
26.780000,0.000150
26.790000,0.000150
26.800000,0.000150
26.810000,0.000149
26.820000,0.000148
26.830000,0.000147
26.840000,0.000145
26.850000,0.000143
26.860000,0.000141
26.870000,0.000140
26.880000,0.000138
26.890000,0.000021
26.900000,0.000031
26.910000,0.000039
26.920000,0.000044
26.930000,0.000049
26.940000,0.000053
26.950000,0.000057
26.960000,0.000061
26.970000,0.000066
26.980000,0.000070
26.990000,0.000073
27.000000,0.000076
27.010000,0.000077
27.020000,0.000077
27.030000,0.000076
27.040000,0.000075
27.050000,0.000073
27.060000,0.000071
27.070000,0.000069
27.080000,0.000067
27.090000,0.000065
27.100000,0.000062
27.110000,0.000060
27.120000,0.000058
27.130000,0.000056
27.140000,0.000054
27.150000,0.000052
27.160000,0.000050
27.170000,0.000048
27.180000,0.000044
27.190000,0.000039
27.200000,0.000035
27.210000,0.000031
27.220000,0.000028
27.230000,0.000025
27.240000,0.000022
27.250000,0.000020
27.260000,0.000018
27.270000,0.000017
27.280000,0.000015
27.290000,0.000014
27.300000,0.000012
27.310000,0.000011
27.320000,0.000010
27.330000,0.000009
27.340000,0.000008
27.350000,0.000007
27.360000,0.000007
27.370000,0.000006
27.380000,0.000005
27.390000,0.000005
27.400000,0.000004
27.410000,0.000004
27.420000,0.000003
27.430000,0.000003
27.440000,0.000003
27.450000,0.000002
27.460000,0.000002
27.470000,0.000002
27.480000,0.000002
27.490000,0.000001
27.500000,0.000001
27.510000,0.000001
27.520000,0.000001
27.530000,0.000001
27.540000,0.000001
27.550000,0.000001
27.560000,0.000001
27.570000,0.000001
27.580000,0.000001
27.590000,0.000001
27.600000,0.000001
27.610000,0.000001
27.620000,0.000001
27.630000,0.000001
27.640000,0.000001
27.650000,0.000001
27.660000,0.000001
27.670000,0.000001
27.680000,0.000000
27.690000,0.000000
27.700000,0.000000
27.710000,0.000000
27.720000,0.000000
27.730000,0.000000
27.740000,0.000000
27.750000,0.000001
27.760000,0.000001
27.770000,0.000001
27.780000,0.000001
27.790000,0.000001
27.800000,0.000001
27.810000,0.000001
27.820000,0.000001
27.830000,0.000001
27.840000,0.000001
27.850000,0.000001
27.860000,0.000001
27.870000,0.000001
27.880000,0.000001
27.890000,0.000001
27.900000,0.000001
27.910000,0.000001
27.920000,0.000002
27.930000,0.000002
27.940000,0.000002
27.950000,0.000002
27.960000,0.000002
27.970000,0.000002
27.980000,0.000002
27.990000,0.000002
28.000000,0.000003
28.050000,0.000003
28.100000,0.000004
28.150000,0.000004
28.200000,0.000005
28.250000,0.000006
28.300000,0.000007
28.350000,0.000007
28.400000,0.000007
28.450000,0.000008
28.500000,0.000008
28.550000,0.000009
